DEPTH (FT)	CALI (IN)	GR (GAPI)	NPHISS	RHOB (G/C3)	RILD (OHMM)	SP (MV)	RFOC (OHMM)
10000	10.307	100.112	0.467	2.277	0.606	-4.299	0.632
10000.25	10.313	100.662	0.465	2.277	0.603	-4.414	0.634
10000.5	10.321	101.039	0.463	2.277	0.599	-4.436	0.636
10000.75	10.328	101.283	0.462	2.277	0.596	-4.371	0.636
10001	10.334	101.553	0.462	2.277	0.593	-4.254	0.632
10001.25	10.338	101.988	0.461	2.277	0.591	-4.136	0.627
10001.5	10.34	102.598	0.46	2.277	0.589	-4.05	0.621
10001.75	10.34	103.171	0.458	2.276	0.588	-4.005	0.616
10002	10.341	103.429	0.457	2.276	0.589	-3.989	0.613
10002.25	10.341	103.2	0.456	2.276	0.59	-4.007	0.613
10002.5	10.343	102.442	0.455	2.276	0.591	-4.095	0.615
10002.75	10.345	101.225	0.455	2.277	0.594	-4.314	0.622
10003	10.35	99.649	0.454	2.278	0.598	-4.703	0.634
10003.25	10.359	97.854	0.452	2.28	0.601	-5.248	0.652
10003.5	10.37	96.08	0.45	2.282	0.605	-5.875	0.674
10003.75	10.387	94.576	0.446	2.285	0.608	-6.455	0.697
10004	10.409	93.585	0.442	2.288	0.611	-6.849	0.717
10004.25	10.436	93.24	0.439	2.29	0.614	-6.958	0.729
10004.5	10.469	93.411	0.436	2.293	0.618	-6.765	0.729
10004.75	10.503	93.835	0.436	2.294	0.621	-6.331	0.719
10005	10.536	94.364	0.437	2.296	0.625	-5.756	0.703
10005.25	10.563	94.94	0.44	2.295	0.629	-5.139	0.685
10005.5	10.582	95.609	0.444	2.295	0.632	-4.553	0.67
10005.75	10.593	96.436	0.448	2.293	0.635	-4.045	0.659
10006	10.599	97.324	0.451	2.291	0.636	-3.636	0.652
10006.25	10.602	98.069	0.453	2.288	0.637	-3.32	0.65
10006.5	10.604	98.611	0.453	2.285	0.637	-3.08	0.652
10006.75	10.606	98.963	0.452	2.282	0.636	-2.905	0.656
10007	10.609	99.202	0.45	2.279	0.636	-2.776	0.661
10007.25	10.612	99.449	0.448	2.276	0.636	-2.675	0.667
10007.5	10.616	99.734	0.447	2.274	0.636	-2.586	0.672
10007.75	10.619	99.908	0.447	2.272	0.637	-2.498	0.676
10008	10.62	99.943	0.448	2.27	0.639	-2.407	0.679
10008.25	10.619	99.863	0.451	2.269	0.64	-2.316	0.682
10008.5	10.616	99.602	0.454	2.268	0.642	-2.23	0.684
10008.75	10.611	99.225	0.457	2.268	0.643	-2.154	0.686
10009	10.607	98.827	0.458	2.268	0.645	-2.091	0.687
10009.25	10.604	98.434	0.459	2.268	0.647	-2.04	0.688
10009.5	10.603	98.197	0.46	2.268	0.649	-1.996	0.688
10009.75	10.603	98.291	0.46	2.268	0.651	-1.955	0.688
10010	10.603	98.8	0.46	2.269	0.653	-1.918	0.688
10010.25	10.603	99.658	0.458	2.27	0.655	-1.886	0.689
10010.5	10.603	100.55	0.458	2.27	0.658	-1.863	0.69
10010.75	10.605	101.07	0.457	2.271	0.66	-1.85	0.692
10011	10.609	100.928	0.457	2.272	0.662	-1.851	0.695
10011.25	10.614	100.206	0.456	2.273	0.663	-1.871	0.698
10011.5	10.62	99.22	0.454	2.275	0.665	-1.914	0.702
10011.75	10.626	98.314	0.452	2.276	0.666	-1.979	0.706
10012	10.631	97.741	0.449	2.278	0.667	-2.06	0.71
10012.25	10.636	97.495	0.447	2.28	0.668	-2.138	0.714
10012.5	10.639	97.442	0.444	2.282	0.669	-2.196	0.718
10012.75	10.641	97.513	0.441	2.284	0.67	-2.224	0.722
10013	10.642	97.831	0.439	2.286	0.671	-2.233	0.724
10013.25	10.643	98.559	0.438	2.287	0.671	-2.238	0.725
10013.5	10.643	99.725	0.438	2.289	0.671	-2.253	0.724
10013.75	10.644	101.145	0.44	2.29	0.671	-2.286	0.721
10014	10.644	102.472	0.443	2.291	0.671	-2.339	0.716
10014.25	10.645	103.353	0.446	2.291	0.67	-2.408	0.711
10014.5	10.646	103.748	0.449	2.291	0.668	-2.487	0.705
10014.75	10.647	103.844	0.451	2.29	0.667	-2.568	0.7
10015	10.647	103.934	0.451	2.29	0.666	-2.639	0.695
10015.25	10.648	104.201	0.451	2.29	0.665	-2.688	0.692
10015.5	10.649	104.651	0.449	2.289	0.664	-2.711	0.691
10015.75	10.651	105.056	0.445	2.29	0.663	-2.711	0.691
10016	10.655	105.197	0.441	2.29	0.663	-2.703	0.694
10016.25	10.656	105.006	0.436	2.291	0.663	-2.702	0.697
10016.5	10.65	104.521	0.431	2.293	0.662	-2.718	0.7
10016.75	10.632	104.022	0.428	2.295	0.662	-2.743	0.702
10017	10.604	103.792	0.427	2.297	0.662	-2.755	0.703
10017.25	10.569	103.85	0.428	2.3	0.663	-2.73	0.705
10017.5	10.535	104.027	0.429	2.302	0.664	-2.656	0.707
10017.75	10.509	104.059	0.43	2.305	0.665	-2.537	0.71
10018	10.496	103.635	0.432	2.308	0.666	-2.391	0.713
10018.25	10.495	102.725	0.433	2.31	0.667	-2.238	0.715
10018.5	10.5	101.617	0.435	2.312	0.668	-2.097	0.715
10018.75	10.508	100.803	0.437	2.313	0.669	-1.979	0.714
10019	10.514	100.676	0.441	2.314	0.67	-1.885	0.711
10019.25	10.517	101.313	0.445	2.315	0.67	-1.806	0.708
10019.5	10.518	102.325	0.448	2.315	0.669	-1.726	0.705
10019.75	10.518	103.182	0.45	2.315	0.668	-1.627	0.702
10020	10.518	103.561	0.451	2.315	0.667	-1.497	0.699
10020.25	10.518	103.427	0.45	2.315	0.665	-1.333	0.697
10020.5	10.518	103.046	0.449	2.315	0.664	-1.147	0.696
10020.75	10.518	102.796	0.447	2.315	0.664	-0.968	0.695
10021	10.517	102.818	0.445	2.315	0.664	-0.827	0.694
10021.25	10.516	102.98	0.443	2.315	0.665	-0.756	0.692
10021.5	10.513	103.04	0.443	2.315	0.666	-0.785	0.691
10021.75	10.509	102.717	0.442	2.315	0.667	-0.948	0.691
10022	10.505	101.929	0.442	2.315	0.669	-1.271	0.694
10022.25	10.5	100.877	0.441	2.315	0.67	-1.741	0.699
10022.5	10.495	99.8	0.44	2.316	0.671	-2.29	0.708
10022.75	10.491	98.904	0.438	2.316	0.672	-2.823	0.719
10023	10.488	98.433	0.435	2.316	0.674	-3.255	0.728
10023.25	10.485	98.565	0.434	2.316	0.676	-3.553	0.734
10023.5	10.482	99.187	0.434	2.316	0.678	-3.746	0.734
10023.75	10.48	100.008	0.436	2.316	0.681	-3.904	0.73
10024	10.478	100.67	0.438	2.316	0.683	-4.09	0.724
10024.25	10.476	100.92	0.44	2.315	0.686	-4.328	0.719
10024.5	10.476	100.752	0.441	2.315	0.687	-4.593	0.717
10024.75	10.476	100.322	0.441	2.314	0.688	-4.832	0.716
10025	10.475	99.796	0.439	2.313	0.688	-5.013	0.717
10025.25	10.475	99.375	0.437	2.312	0.688	-5.134	0.718
10025.5	10.474	99.182	0.435	2.312	0.687	-5.2	0.718
10025.75	10.475	99.217	0.435	2.31	0.686	-5.227	0.717
10026	10.477	99.373	0.435	2.309	0.686	-5.232	0.715
10026.25	10.48	99.766	0.437	2.308	0.685	-5.232	0.712
10026.5	10.483	100.517	0.438	2.307	0.684	-5.244	0.709
10026.75	10.483	101.439	0.439	2.306	0.682	-5.277	0.706
10027	10.477	102.144	0.439	2.305	0.681	-5.332	0.704
10027.25	10.467	102.359	0.438	2.303	0.68	-5.395	0.702
10027.5	10.455	102.065	0.436	2.301	0.679	-5.446	0.7
10027.75	10.443	101.376	0.433	2.299	0.678	-5.468	0.699
10028	10.434	100.479	0.431	2.297	0.678	-5.455	0.698
10028.25	10.427	99.643	0.431	2.295	0.678	-5.416	0.699
10028.5	10.421	99.106	0.431	2.292	0.678	-5.372	0.701
10028.75	10.416	98.925	0.433	2.289	0.679	-5.337	0.704
10029	10.413	98.995	0.436	2.287	0.679	-5.316	0.706
10029.25	10.418	99.233	0.438	2.285	0.68	-5.302	0.707
10029.5	10.438	99.72	0.44	2.283	0.682	-5.281	0.706
10029.75	10.476	100.439	0.441	2.282	0.684	-5.252	0.703
10030	10.531	101.299	0.442	2.281	0.686	-5.227	0.7
10030.25	10.592	102.136	0.443	2.282	0.689	-5.228	0.697
10030.5	10.65	102.897	0.445	2.283	0.692	-5.273	0.696
10030.75	10.695	103.58	0.447	2.286	0.696	-5.376	0.697
10031	10.728	104.034	0.45	2.288	0.7	-5.538	0.698
10031.25	10.753	103.98	0.452	2.293	0.706	-5.759	0.7
10031.5	10.779	103.353	0.453	2.297	0.711	-6.046	0.704
10031.75	10.811	102.146	0.452	2.303	0.718	-6.411	0.709
10032	10.847	100.422	0.447	2.308	0.725	-6.858	0.716
10032.25	10.883	98.464	0.438	2.314	0.731	-7.374	0.727
10032.5	10.916	96.647	0.427	2.32	0.738	-7.929	0.741
10032.75	10.947	95.135	0.415	2.325	0.744	-8.488	0.757
10033	10.982	93.885	0.404	2.329	0.749	-9.027	0.774
10033.25	11.025	92.832	0.394	2.332	0.755	-9.555	0.788
10033.5	11.074	91.977	0.387	2.335	0.76	-10.098	0.8
10033.75	11.128	91.359	0.382	2.336	0.765	-10.68	0.807
10034	11.183	91	0.379	2.337	0.77	-11.303	0.81
10034.25	11.242	90.879	0.376	2.337	0.774	-11.937	0.809
10034.5	11.307	90.93	0.373	2.336	0.778	-12.536	0.806
10034.75	11.38	91.1	0.371	2.334	0.781	-13.061	0.802
10035	11.458	91.342	0.368	2.333	0.783	-13.495	0.797
10035.25	11.539	91.643	0.366	2.331	0.784	-13.839	0.792
10035.5	11.61	91.893	0.365	2.33	0.786	-14.102	0.789
10035.75	11.656	91.905	0.364	2.329	0.787	-14.292	0.786
10036	11.662	91.58	0.364	2.328	0.789	-14.411	0.784
10036.25	11.624	91.018	0.365	2.328	0.79	-14.466	0.782
10036.5	11.552	90.502	0.366	2.328	0.792	-14.479	0.782
10036.75	11.463	90.342	0.366	2.328	0.795	-14.469	0.782
10037	11.377	90.551	0.366	2.329	0.796	-14.447	0.782
10037.25	11.305	90.917	0.365	2.329	0.798	-14.412	0.782
10037.5	11.248	91.148	0.364	2.33	0.798	-14.367	0.782
10037.75	11.196	91.004	0.362	2.331	0.798	-14.321	0.783
10038	11.142	90.609	0.362	2.332	0.797	-14.288	0.785
10038.25	11.089	90.398	0.363	2.332	0.795	-14.274	0.789
10038.5	11.046	90.627	0.365	2.333	0.793	-14.278	0.794
10038.75	11.024	91.19	0.365	2.333	0.791	-14.289	0.798
10039	11.022	91.78	0.365	2.334	0.789	-14.294	0.801
10039.25	11.034	92.123	0.363	2.333	0.787	-14.288	0.802
10039.5	11.05	92.116	0.361	2.333	0.785	-14.287	0.802
10039.75	11.061	91.84	0.359	2.332	0.784	-14.312	0.801
10040	11.066	91.39	0.357	2.331	0.782	-14.37	0.8
10040.25	11.066	90.823	0.355	2.33	0.781	-14.442	0.8
10040.5	11.066	90.241	0.353	2.329	0.779	-14.488	0.8
10040.75	11.066	89.715	0.353	2.327	0.778	-14.467	0.799
10041	11.066	89.384	0.353	2.326	0.776	-14.358	0.797
10041.25	11.063	89.427	0.354	2.325	0.774	-14.175	0.793
10041.5	11.057	89.889	0.356	2.324	0.771	-13.958	0.79
10041.75	11.046	90.58	0.358	2.323	0.769	-13.758	0.787
10042	11.032	91.282	0.36	2.323	0.767	-13.601	0.786
10042.25	11.017	91.847	0.362	2.323	0.765	-13.484	0.786
10042.5	11.003	92.245	0.364	2.323	0.763	-13.376	0.787
10042.75	10.993	92.521	0.367	2.324	0.763	-13.234	0.788
10043	10.988	92.699	0.368	2.325	0.762	-13.029	0.788
10043.25	10.987	92.814	0.37	2.326	0.763	-12.762	0.788
10043.5	10.992	92.989	0.37	2.327	0.763	-12.466	0.788
10043.75	11.007	93.276	0.37	2.328	0.764	-12.194	0.788
10044	11.043	93.686	0.369	2.329	0.764	-11.989	0.788
10044.25	11.105	94.177	0.367	2.329	0.765	-11.869	0.787
10044.5	11.193	94.598	0.365	2.33	0.765	-11.831	0.785
10044.75	11.298	94.768	0.364	2.329	0.765	-11.858	0.782
10045	11.402	94.573	0.363	2.329	0.765	-11.931	0.779
10045.25	11.481	93.983	0.364	2.328	0.765	-12.03	0.776
10045.5	11.512	93.188	0.365	2.326	0.764	-12.132	0.774
10045.75	11.485	92.532	0.367	2.325	0.763	-12.201	0.773
10046	11.405	92.28	0.37	2.323	0.762	-12.205	0.772
10046.25	11.295	92.451	0.373	2.321	0.762	-12.118	0.772
10046.5	11.183	92.898	0.377	2.319	0.761	-11.946	0.771
10046.75	11.093	93.333	0.381	2.317	0.76	-11.722	0.769
10047	11.041	93.401	0.386	2.315	0.759	-11.496	0.767
10047.25	11.021	93.033	0.389	2.314	0.758	-11.302	0.766
10047.5	11.017	92.539	0.39	2.312	0.758	-11.147	0.764
10047.75	11.011	92.271	0.391	2.311	0.758	-11.015	0.763
10048	10.992	92.423	0.39	2.31	0.758	-10.893	0.761
10048.25	10.963	92.889	0.391	2.309	0.759	-10.789	0.759
10048.5	10.935	93.363	0.392	2.308	0.76	-10.716	0.757
10048.75	10.917	93.69	0.394	2.307	0.761	-10.686	0.755
10049	10.913	93.853	0.397	2.307	0.762	-10.695	0.753
10049.25	10.922	94.005	0.4	2.306	0.762	-10.733	0.752
10049.5	10.935	94.321	0.402	2.306	0.763	-10.785	0.752
10049.75	10.943	94.814	0.405	2.306	0.763	-10.833	0.753
10050	10.947	95.264	0.407	2.305	0.763	-10.86	0.755
10050.25	10.95	95.35	0.409	2.305	0.763	-10.848	0.758
10050.5	10.954	94.952	0.411	2.305	0.763	-10.781	0.762
10050.75	10.953	94.2	0.413	2.305	0.763	-10.655	0.764
10051	10.942	93.246	0.415	2.304	0.763	-10.483	0.766
10051.25	10.921	92.251	0.417	2.304	0.764	-10.293	0.766
10051.5	10.898	91.324	0.419	2.304	0.766	-10.118	0.766
10051.75	10.88	90.588	0.422	2.303	0.768	-9.97	0.766
10052	10.874	90.237	0.423	2.303	0.77	-9.84	0.766
10052.25	10.88	90.388	0.425	2.302	0.772	-9.705	0.767
10052.5	10.897	91.114	0.425	2.302	0.773	-9.542	0.769
10052.75	10.918	92.407	0.424	2.302	0.773	-9.335	0.77
10053	10.937	94.114	0.422	2.302	0.773	-9.086	0.769
10053.25	10.955	95.933	0.421	2.303	0.773	-8.814	0.768
10053.5	10.973	97.518	0.42	2.303	0.772	-8.554	0.765
10053.75	10.99	98.591	0.42	2.304	0.771	-8.344	0.764
10054	11.002	99.091	0.419	2.304	0.77	-8.212	0.764
10054.25	11.004	99.073	0.418	2.305	0.769	-8.168	0.767
10054.5	11.001	98.698	0.416	2.306	0.767	-8.197	0.772
10054.75	11.002	98.044	0.414	2.307	0.766	-8.271	0.778
10055	11.02	97.245	0.412	2.307	0.766	-8.359	0.782
10055.25	11.068	96.482	0.411	2.308	0.765	-8.443	0.783
10055.5	11.156	95.842	0.41	2.309	0.766	-8.52	0.781
10055.75	11.281	95.275	0.409	2.31	0.766	-8.593	0.776
10056	11.427	94.823	0.407	2.31	0.766	-8.657	0.771
10056.25	11.564	94.574	0.405	2.311	0.766	-8.701	0.766
10056.5	11.664	94.656	0.404	2.311	0.766	-8.716	0.764
10056.75	11.712	95.027	0.404	2.312	0.764	-8.708	0.763
10057	11.712	95.511	0.405	2.312	0.762	-8.687	0.763
10057.25	11.677	95.919	0.407	2.312	0.76	-8.67	0.763
10057.5	11.621	96.224	0.409	2.313	0.757	-8.662	0.762
10057.75	11.557	96.332	0.41	2.313	0.755	-8.658	0.761
10058	11.492	96.134	0.411	2.313	0.753	-8.636	0.758
10058.25	11.431	95.693	0.411	2.313	0.752	-8.57	0.755
10058.5	11.378	95.118	0.41	2.314	0.751	-8.449	0.753
10058.75	11.337	94.398	0.409	2.314	0.751	-8.287	0.752
10059	11.312	93.54	0.406	2.315	0.752	-8.128	0.753
10059.25	11.302	92.7	0.402	2.316	0.753	-8.025	0.756
10059.5	11.303	92.15	0.399	2.317	0.754	-8.03	0.759
10059.75	11.309	92.108	0.395	2.319	0.756	-8.163	0.763
10060	11.318	92.552	0.391	2.32	0.758	-8.409	0.767
10060.25	11.328	93.237	0.388	2.321	0.761	-8.715	0.771
10060.5	11.337	94.01	0.385	2.322	0.764	-9.025	0.773
10060.75	11.344	94.815	0.381	2.323	0.767	-9.304	0.775
10061	11.348	95.509	0.378	2.323	0.77	-9.562	0.778
10061.25	11.347	95.906	0.375	2.324	0.773	-9.834	0.781
10061.5	11.339	95.849	0.372	2.324	0.776	-10.149	0.786
10061.75	11.325	95.247	0.369	2.323	0.778	-10.5	0.794
10062	11.306	94.166	0.367	2.323	0.779	-10.842	0.803
10062.25	11.284	92.887	0.367	2.323	0.78	-11.111	0.812
10062.5	11.264	91.823	0.367	2.322	0.781	-11.246	0.82
10062.75	11.259	91.395	0.368	2.321	0.782	-11.217	0.823
10063	11.279	91.769	0.371	2.32	0.783	-11.028	0.821
10063.25	11.323	92.794	0.373	2.319	0.784	-10.71	0.814
10063.5	11.376	94.086	0.377	2.318	0.786	-10.301	0.802
10063.75	11.416	95.343	0.38	2.317	0.787	-9.846	0.789
10064	11.427	96.41	0.384	2.317	0.787	-9.393	0.777
10064.25	11.403	97.185	0.388	2.316	0.786	-8.993	0.767
10064.5	11.352	97.573	0.392	2.315	0.785	-8.693	0.761
10064.75	11.292	97.49	0.395	2.315	0.783	-8.503	0.759
10065	11.242	96.9	0.397	2.314	0.781	-8.403	0.76
10065.25	11.208	95.787	0.397	2.315	0.779	-8.359	0.765
10065.5	11.182	94.242	0.396	2.315	0.778	-8.328	0.772
10065.75	11.15	92.56	0.394	2.317	0.777	-8.269	0.778
10066	11.105	91.174	0.392	2.318	0.777	-8.154	0.783
10066.25	11.047	90.567	0.391	2.32	0.778	-7.974	0.784
10066.5	10.981	91.065	0.393	2.322	0.78	-7.738	0.782
10066.75	10.914	92.56	0.397	2.325	0.783	-7.479	0.774
10067	10.858	94.556	0.402	2.328	0.786	-7.26	0.762
10067.25	10.821	96.38	0.407	2.333	0.79	-7.176	0.746
10067.5	10.806	97.457	0.409	2.337	0.794	-7.341	0.731
10067.75	10.81	97.5	0.408	2.343	0.798	-7.835	0.719
10068	10.826	96.667	0.402	2.348	0.8	-8.643	0.716
10068.25	10.848	95.313	0.392	2.354	0.801	-9.634	0.727
10068.5	10.867	93.756	0.38	2.36	0.8	-10.588	0.752
10068.75	10.877	92.278	0.368	2.365	0.797	-11.256	0.791
10069	10.879	91.144	0.357	2.37	0.793	-11.458	0.836
10069.25	10.872	90.635	0.35	2.373	0.789	-11.13	0.873
10069.5	10.861	91.026	0.349	2.375	0.786	-10.338	0.889
10069.75	10.85	92.478	0.353	2.375	0.784	-9.227	0.879
10070	10.843	94.781	0.362	2.375	0.784	-7.969	0.85
10070.25	10.841	97.307	0.373	2.372	0.785	-6.705	0.817
10070.5	10.844	99.428	0.383	2.369	0.786	-5.519	0.79
10070.75	10.849	100.703	0.39	2.366	0.787	-4.452	0.773
10071	10.854	101.005	0.394	2.362	0.785	-3.516	0.765
10071.25	10.857	100.517	0.396	2.359	0.783	-2.708	0.764
10071.5	10.859	99.519	0.396	2.356	0.778	-2.038	0.766
10071.75	10.86	98.293	0.396	2.354	0.774	-1.533	0.77
10072	10.859	97.169	0.395	2.352	0.769	-1.226	0.776
10072.25	10.857	96.533	0.395	2.351	0.765	-1.124	0.782
10072.5	10.859	96.706	0.394	2.351	0.761	-1.189	0.79
10072.75	10.872	97.689	0.394	2.351	0.757	-1.34	0.796
10073	10.903	99.059	0.394	2.351	0.755	-1.479	0.799
10073.25	10.952	100.083	0.394	2.351	0.753	-1.541	0.798
10073.5	11.016	100.107	0.395	2.351	0.752	-1.509	0.794
10073.75	11.082	98.979	0.395	2.351	0.752	-1.402	0.788
10074	11.138	97.115	0.394	2.351	0.752	-1.26	0.783
10074.25	11.166	95.318	0.393	2.35	0.752	-1.115	0.779
10074.5	11.155	94.366	0.392	2.35	0.752	-0.981	0.779
10074.75	11.105	94.502	0.393	2.349	0.751	-0.856	0.78
10075	11.025	95.422	0.396	2.349	0.75	-0.741	0.781
10075.25	10.933	96.512	0.399	2.349	0.749	-0.644	0.782
10075.5	10.843	97.308	0.403	2.349	0.749	-0.585	0.782
10075.75	10.772	97.718	0.405	2.348	0.749	-0.585	0.78
10076	10.723	97.935	0.406	2.348	0.749	-0.661	0.778
10076.25	10.695	98.135	0.405	2.348	0.749	-0.81	0.777
10076.5	10.679	98.466	0.403	2.348	0.749	-1.006	0.779
10076.75	10.669	98.867	0.401	2.348	0.749	-1.203	0.784
10077	10.662	99.162	0.398	2.348	0.75	-1.346	0.79
10077.25	10.658	99.195	0.396	2.347	0.751	-1.403	0.798
10077.5	10.658	99.013	0.395	2.347	0.754	-1.376	0.803
10077.75	10.662	98.808	0.395	2.347	0.756	-1.303	0.806
10078	10.67	98.813	0.394	2.346	0.759	-1.241	0.805
10078.25	10.681	99.181	0.394	2.346	0.761	-1.232	0.803
10078.5	10.694	99.975	0.394	2.346	0.761	-1.276	0.8
10078.75	10.708	100.982	0.395	2.347	0.761	-1.334	0.799
10079	10.719	101.859	0.396	2.347	0.761	-1.351	0.8
10079.25	10.728	102.225	0.399	2.347	0.76	-1.281	0.803
10079.5	10.734	101.886	0.403	2.348	0.761	-1.117	0.804
10079.75	10.737	101.057	0.407	2.348	0.761	-0.889	0.803
10080	10.738	100.165	0.411	2.348	0.762	-0.646	0.801
10080.25	10.738	99.617	0.415	2.348	0.763	-0.434	0.797
10080.5	10.738	99.646	0.418	2.348	0.763	-0.284	0.792
10080.75	10.736	100.186	0.421	2.348	0.764	-0.198	0.79
10081	10.734	100.871	0.421	2.348	0.764	-0.163	0.788
10081.25	10.733	101.243	0.419	2.347	0.764	-0.173	0.788
10081.5	10.735	101.08	0.417	2.347	0.766	-0.236	0.789
10081.75	10.739	100.404	0.414	2.346	0.767	-0.37	0.79
10082	10.745	99.376	0.413	2.346	0.769	-0.583	0.792
10082.25	10.753	98.201	0.413	2.345	0.77	-0.862	0.794
10082.5	10.759	97.017	0.414	2.345	0.771	-1.179	0.798
10082.75	10.764	95.993	0.414	2.345	0.771	-1.495	0.803
10083	10.766	95.346	0.414	2.345	0.771	-1.773	0.809
10083.25	10.766	95.136	0.414	2.345	0.771	-1.983	0.814
10083.5	10.762	95.328	0.413	2.346	0.771	-2.106	0.818
10083.75	10.752	95.847	0.413	2.346	0.77	-2.143	0.818
10084	10.738	96.469	0.413	2.346	0.77	-2.107	0.816
10084.25	10.72	96.931	0.414	2.346	0.769	-2.038	0.812
10084.5	10.7	97.133	0.416	2.346	0.768	-1.996	0.808
10084.75	10.678	97.125	0.418	2.345	0.767	-2.046	0.802
10085	10.657	97.134	0.419	2.344	0.765	-2.23	0.797
10085.25	10.638	97.418	0.42	2.342	0.762	-2.554	0.791
10085.5	10.619	98.011	0.421	2.34	0.759	-3.011	0.787
10085.75	10.603	98.785	0.421	2.337	0.756	-3.582	0.784
10086	10.59	99.603	0.421	2.335	0.752	-4.241	0.782
10086.25	10.579	100.349	0.421	2.332	0.748	-4.946	0.779
10086.5	10.572	100.895	0.421	2.329	0.745	-5.639	0.774
10086.75	10.568	101.163	0.423	2.327	0.741	-6.253	0.766
10087	10.566	101.056	0.426	2.324	0.738	-6.726	0.755
10087.25	10.566	100.706	0.429	2.322	0.735	-7.022	0.744
10087.5	10.566	100.42	0.433	2.32	0.732	-7.143	0.734
10087.75	10.567	100.481	0.436	2.319	0.728	-7.125	0.727
10088	10.569	100.915	0.437	2.317	0.723	-7.02	0.723
10088.25	10.571	101.536	0.438	2.315	0.719	-6.874	0.719
10088.5	10.574	102.046	0.438	2.313	0.716	-6.719	0.716
10088.75	10.578	102.181	0.437	2.311	0.715	-6.587	0.713
10089	10.58	101.907	0.436	2.31	0.715	-6.51	0.711
10089.25	10.582	101.43	0.434	2.308	0.717	-6.512	0.713
10089.5	10.583	100.892	0.431	2.307	0.72	-6.605	0.717
10089.75	10.582	100.303	0.428	2.306	0.724	-6.779	0.725
10090	10.58	99.571	0.423	2.305	0.727	-7.014	0.735
10090.25	10.579	98.61	0.418	2.305	0.729	-7.29	0.744
10090.5	10.58	97.568	0.412	2.305	0.731	-7.592	0.753
10090.75	10.585	96.739	0.408	2.306	0.732	-7.894	0.761
10091	10.594	96.257	0.405	2.306	0.733	-8.166	0.767
10091.25	10.607	96.084	0.405	2.308	0.735	-8.383	0.772
10091.5	10.623	96.118	0.407	2.309	0.738	-8.522	0.776
10091.75	10.644	96.287	0.411	2.31	0.741	-8.573	0.778
10092	10.672	96.569	0.417	2.311	0.746	-8.545	0.776
10092.25	10.706	97.01	0.422	2.312	0.75	-8.474	0.771
10092.5	10.743	97.667	0.428	2.313	0.754	-8.398	0.763
10092.75	10.778	98.514	0.431	2.313	0.756	-8.351	0.755
10093	10.806	99.484	0.432	2.313	0.758	-8.345	0.749
10093.25	10.824	100.484	0.432	2.312	0.758	-8.372	0.746
10093.5	10.832	101.393	0.432	2.311	0.758	-8.42	0.746
10093.75	10.834	102.194	0.433	2.31	0.757	-8.468	0.748
10094	10.832	102.85	0.436	2.309	0.757	-8.485	0.751
10094.25	10.827	103.348	0.44	2.308	0.756	-8.449	0.752
10094.5	10.822	103.776	0.443	2.306	0.756	-8.357	0.751
10094.75	10.817	104.214	0.445	2.305	0.757	-8.239	0.75
10095	10.814	104.486	0.444	2.304	0.757	-8.146	0.748
10095.25	10.813	104.335	0.441	2.303	0.759	-8.125	0.747
10095.5	10.813	103.647	0.436	2.303	0.76	-8.189	0.75
10095.75	10.814	102.627	0.433	2.303	0.762	-8.32	0.754
10096	10.82	101.649	0.431	2.303	0.764	-8.482	0.761
10096.25	10.839	100.943	0.432	2.303	0.767	-8.646	0.768
10096.5	10.877	100.42	0.434	2.304	0.77	-8.801	0.775
10096.75	10.935	99.875	0.436	2.305	0.774	-8.947	0.781
10097	11.007	99.144	0.438	2.306	0.777	-9.085	0.787
10097.25	11.08	98.182	0.437	2.308	0.78	-9.209	0.791
10097.5	11.14	97.041	0.435	2.31	0.782	-9.306	0.796
10097.75	11.18	96.069	0.432	2.312	0.783	-9.369	0.799
10098	11.202	95.697	0.428	2.315	0.783	-9.405	0.803
10098.25	11.211	96.054	0.425	2.317	0.782	-9.432	0.806
10098.5	11.214	97.016	0.423	2.319	0.78	-9.467	0.808
10098.75	11.204	98.298	0.423	2.32	0.777	-9.51	0.809
10099	11.175	99.672	0.423	2.321	0.773	-9.545	0.808
10099.25	11.122	100.928	0.424	2.321	0.769	-9.545	0.804
10099.5	11.049	101.796	0.426	2.321	0.764	-9.493	0.798
10099.75	10.968	102.11	0.428	2.319	0.759	-9.388	0.79
10100	10.895	102.001	0.43	2.318	0.754	-9.248	0.781
10100.25	10.841	101.81	0.432	2.317	0.749	-9.103	0.772
10100.5	10.809	101.778	0.434	2.315	0.744	-8.984	0.765
10100.75	10.795	101.861	0.435	2.315	0.739	-8.905	0.759
10101	10.789	101.987	0.436	2.314	0.735	-8.866	0.755
10101.25	10.786	102.112	0.437	2.314	0.731	-8.854	0.752
10101.5	10.785	102.244	0.438	2.314	0.729	-8.859	0.751
10101.75	10.786	102.369	0.438	2.315	0.727	-8.881	0.751
10102	10.79	102.375	0.439	2.316	0.726	-8.923	0.75
10102.25	10.797	102.24	0.44	2.318	0.725	-8.986	0.749
10102.5	10.805	102.002	0.442	2.319	0.725	-9.062	0.749
10102.75	10.812	101.732	0.443	2.32	0.724	-9.135	0.75
10103	10.813	101.542	0.444	2.32	0.723	-9.185	0.751
10103.25	10.801	101.569	0.445	2.32	0.721	-9.199	0.752
10103.5	10.774	101.814	0.446	2.32	0.719	-9.178	0.753
10103.75	10.732	102.078	0.448	2.32	0.718	-9.134	0.752
10104	10.681	102.141	0.45	2.319	0.717	-9.088	0.75
10104.25	10.629	101.943	0.453	2.319	0.716	-9.066	0.747
10104.5	10.586	101.598	0.455	2.318	0.715	-9.092	0.743
10104.75	10.556	101.477	0.456	2.317	0.715	-9.175	0.74
10105	10.54	101.895	0.457	2.316	0.714	-9.303	0.739
10105.25	10.533	102.839	0.458	2.316	0.714	-9.442	0.738
10105.5	10.53	103.961	0.459	2.315	0.713	-9.554	0.738
10105.75	10.529	104.786	0.461	2.315	0.713	-9.614	0.738
10106	10.528	104.971	0.462	2.315	0.714	-9.62	0.738
10106.25	10.529	104.455	0.464	2.315	0.714	-9.594	0.736
10106.5	10.532	103.544	0.464	2.314	0.714	-9.564	0.735
10106.75	10.538	102.669	0.463	2.314	0.714	-9.547	0.735
10107	10.55	102.205	0.461	2.314	0.713	-9.537	0.737
10107.25	10.572	102.314	0.459	2.314	0.713	-9.518	0.739
10107.5	10.61	102.81	0.457	2.314	0.712	-9.47	0.742
10107.75	10.665	103.356	0.456	2.314	0.713	-9.392	0.745
10108	10.732	103.662	0.456	2.313	0.713	-9.295	0.746
10108.25	10.801	103.542	0.457	2.313	0.714	-9.197	0.747
10108.5	10.863	103.039	0.458	2.312	0.715	-9.113	0.748
10108.75	10.908	102.328	0.46	2.311	0.716	-9.042	0.748
10109	10.934	101.702	0.461	2.31	0.717	-8.972	0.749
10109.25	10.945	101.458	0.461	2.309	0.718	-8.889	0.75
10109.5	10.949	101.653	0.46	2.307	0.718	-8.791	0.75
10109.75	10.949	102.028	0.46	2.306	0.718	-8.693	0.749
10110	10.949	102.156	0.461	2.304	0.719	-8.617	0.747
10110.25	10.949	101.819	0.462	2.303	0.72	-8.581	0.745
10110.5	10.948	101.1	0.463	2.302	0.72	-8.583	0.743
10110.75	10.946	100.247	0.465	2.301	0.721	-8.609	0.741
10111	10.944	99.614	0.466	2.301	0.721	-8.64	0.74
10111.25	10.942	99.515	0.467	2.301	0.721	-8.666	0.739
10111.5	10.941	99.996	0.468	2.301	0.72	-8.69	0.738
10111.75	10.941	100.821	0.469	2.302	0.718	-8.725	0.739
10112	10.941	101.584	0.469	2.303	0.717	-8.771	0.742
10112.25	10.942	102.062	0.467	2.305	0.716	-8.813	0.745
10112.5	10.943	102.201	0.464	2.307	0.715	-8.826	0.75
10112.75	10.944	101.982	0.459	2.309	0.716	-8.787	0.754
10113	10.943	101.385	0.455	2.312	0.716	-8.682	0.758
10113.25	10.94	100.519	0.45	2.314	0.718	-8.516	0.76
10113.5	10.935	99.614	0.447	2.316	0.72	-8.306	0.761
10113.75	10.926	98.891	0.446	2.317	0.722	-8.07	0.761
10114	10.917	98.359	0.446	2.318	0.724	-7.817	0.761
10114.25	10.909	97.971	0.447	2.318	0.727	-7.546	0.761
10114.5	10.907	97.825	0.447	2.318	0.729	-7.26	0.762
10114.75	10.919	97.99	0.446	2.317	0.731	-6.967	0.764
10115	10.948	98.386	0.444	2.316	0.734	-6.699	0.767
10115.25	10.992	98.859	0.442	2.314	0.737	-6.495	0.769
10115.5	11.041	99.339	0.441	2.313	0.74	-6.391	0.771
10115.75	11.079	99.705	0.442	2.311	0.743	-6.399	0.771
10116	11.095	99.822	0.443	2.31	0.746	-6.499	0.77
10116.25	11.084	99.614	0.446	2.309	0.748	-6.643	0.768
10116.5	11.053	99.125	0.449	2.307	0.749	-6.78	0.766
10116.75	11.015	98.39	0.45	2.307	0.75	-6.88	0.764
10117	10.983	97.448	0.451	2.306	0.749	-6.934	0.762
10117.25	10.963	96.373	0.451	2.305	0.748	-6.95	0.761
10117.5	10.953	95.229	0.449	2.305	0.747	-6.941	0.76
10117.75	10.947	94.135	0.445	2.305	0.745	-6.916	0.761
10118	10.939	93.308	0.442	2.304	0.743	-6.875	0.762
10118.25	10.93	92.904	0.439	2.304	0.741	-6.815	0.764
10118.5	10.927	93.066	0.437	2.304	0.739	-6.735	0.767
10118.75	10.936	93.947	0.436	2.304	0.738	-6.634	0.769
10119	10.957	95.506	0.436	2.305	0.738	-6.507	0.771
10119.25	10.987	97.481	0.435	2.305	0.739	-6.347	0.773
10119.5	11.02	99.391	0.433	2.305	0.741	-6.148	0.774
10119.75	11.048	100.77	0.43	2.306	0.743	-5.907	0.776
10120	11.061	101.269	0.427	2.306	0.746	-5.624	0.778
10120.25	11.054	100.968	0.425	2.307	0.748	-5.311	0.781
10120.5	11.027	100.272	0.424	2.307	0.752	-4.992	0.784
10120.75	10.984	99.563	0.426	2.306	0.755	-4.7	0.786
10121	10.932	99.131	0.429	2.305	0.759	-4.466	0.788
10121.25	10.879	99.109	0.433	2.303	0.763	-4.308	0.789
10121.5	10.836	99.384	0.436	2.301	0.767	-4.223	0.791
10121.75	10.817	99.724	0.438	2.298	0.772	-4.196	0.794
10122	10.832	100.065	0.438	2.294	0.777	-4.196	0.795
10122.25	10.881	100.457	0.436	2.289	0.784	-4.198	0.797
10122.5	10.945	100.872	0.434	2.285	0.793	-4.182	0.797
10122.75	10.998	101.11	0.431	2.279	0.806	-4.143	0.798
10123	11.017	100.95	0.43	2.274	0.823	-4.088	0.799
10123.25	10.992	100.227	0.43	2.268	0.844	-4.029	0.805
10123.5	10.933	99.066	0.432	2.263	0.872	-3.981	0.821
10123.75	10.861	97.753	0.435	2.256	0.906	-3.96	0.854
10124	10.802	96.569	0.437	2.25	0.948	-3.982	0.914
10124.25	10.769	95.729	0.437	2.243	1	-4.069	1.01
10124.5	10.761	95.303	0.436	2.235	1.063	-4.254	1.157
10124.75	10.766	95.017	0.432	2.225	1.138	-4.59	1.365
10125	10.773	94.393	0.427	2.214	1.226	-5.154	1.637
10125.25	10.779	93.103	0.42	2.2	1.331	-6.065	1.957
10125.5	10.782	91.093	0.41	2.187	1.456	-7.485	2.278
10125.75	10.783	88.439	0.4	2.17	1.604	-9.562	2.545
10126	10.782	85.205	0.389	2.154	1.787	-12.373	2.726
10126.25	10.78	81.478	0.379	2.137	2.019	-15.876	2.827
10126.5	10.779	77.379	0.371	2.12	2.325	-19.915	2.876
10126.75	10.781	73.209	0.364	2.106	2.739	-24.252	2.901
10127	10.786	69.344	0.359	2.091	3.305	-28.625	2.92
10127.25	10.794	66.115	0.356	2.079	4.059	-32.804	2.941
10127.5	10.804	63.806	0.353	2.068	5.002	-36.627	2.972
10127.75	10.814	62.48	0.352	2.06	6.048	-39.996	3.018
10128	10.823	61.871	0.351	2.053	7.002	-42.853	3.078
10128.25	10.83	61.63	0.35	2.048	7.653	-45.148	3.141
10128.5	10.834	61.484	0.348	2.044	7.93	-46.861	3.197
10128.75	10.837	61.388	0.347	2.041	7.918	-48.036	3.244
10129	10.839	61.392	0.345	2.039	7.75	-48.782	3.297
10129.25	10.84	61.409	0.343	2.037	7.53	-49.258	3.394
10129.5	10.841	61.301	0.342	2.035	7.314	-49.637	3.583
10129.75	10.841	60.988	0.341	2.034	7.132	-50.064	3.92
10130	10.841	60.51	0.339	2.033	7.007	-50.618	4.458
10130.25	10.841	59.947	0.338	2.032	6.967	-51.303	5.239
10130.5	10.84	59.33	0.335	2.032	7.049	-52.065	6.267
10130.75	10.84	58.636	0.333	2.032	7.287	-52.846	7.476
10131	10.839	57.757	0.331	2.032	7.709	-53.61	8.753
10131.25	10.836	56.645	0.329	2.034	8.321	-54.353	10.032
10131.5	10.831	55.464	0.327	2.035	9.108	-55.074	11.386
10131.75	10.822	54.401	0.325	2.037	10.026	-55.748	12.985
10132	10.81	53.607	0.322	2.038	11.018	-56.335	14.966
10132.25	10.796	53.141	0.318	2.04	12.026	-56.783	17.354
10132.5	10.784	52.903	0.314	2.042	12.979	-57.051	20.021
10132.75	10.775	52.77	0.31	2.042	13.776	-57.121	22.713
10133	10.771	52.634	0.307	2.043	14.299	-57.004	25.193
10133.25	10.769	52.494	0.306	2.043	14.485	-56.742	27.387
10133.5	10.77	52.421	0.305	2.042	14.385	-56.385	29.35
10133.75	10.771	52.425	0.305	2.041	14.146	-55.978	31.136
10134	10.772	52.441	0.305	2.039	13.927	-55.547	32.733
10134.25	10.775	52.394	0.304	2.037	13.835	-55.096	34.054
10134.5	10.78	52.296	0.305	2.035	13.918	-54.616	34.969
10134.75	10.786	52.357	0.308	2.032	14.18	-54.097	35.375
10135	10.792	52.72	0.311	2.03	14.604	-53.535	35.245
10135.25	10.797	53.388	0.312	2.028	15.17	-52.94	34.651
10135.5	10.799	54.243	0.313	2.026	15.859	-52.341	33.771
10135.75	10.797	55.119	0.312	2.024	16.647	-51.77	32.857
10136	10.793	55.767	0.31	2.023	17.499	-51.249	32.165
10136.25	10.786	55.929	0.308	2.022	18.373	-50.779	31.886
10136.5	10.779	55.563	0.305	2.021	19.213	-50.352	32.097
10136.75	10.773	54.833	0.303	2.021	19.956	-49.963	32.742
10137	10.769	53.934	0.299	2.021	20.531	-49.616	33.66
10137.25	10.768	53.017	0.294	2.022	20.896	-49.329	34.645
10137.5	10.769	52.219	0.289	2.022	21.059	-49.127	35.537
10137.75	10.773	51.693	0.284	2.023	21.09	-49.039	36.285
10138	10.778	51.512	0.282	2.024	21.092	-49.093	36.942
10138.25	10.783	51.52	0.283	2.025	21.158	-49.312	37.555
10138.5	10.785	51.42	0.285	2.026	21.349	-49.706	38.067
10138.75	10.782	51.03	0.289	2.027	21.676	-50.276	38.317
10139	10.774	50.452	0.294	2.027	22.111	-51.006	38.164
10139.25	10.759	49.963	0.299	2.027	22.599	-51.863	37.624
10139.5	10.735	49.804	0.305	2.026	23.075	-52.804	36.882
10139.75	10.702	50.07	0.31	2.025	23.477	-53.786	36.173
10140	10.658	50.709	0.316	2.023	23.752	-54.773	35.658
10140.25	10.609	51.526	0.321	2.021	23.857	-55.736	35.348
10140.5	10.559	52.221	0.327	2.018	23.756	-56.654	35.111
10140.75	10.515	52.611	0.333	2.016	23.413	-57.513	34.72
10141	10.481	52.749	0.338	2.013	22.791	-58.304	33.96
10141.25	10.46	52.817	0.341	2.011	21.88	-59.018	32.767
10141.5	10.452	53.029	0.342	2.009	20.729	-59.652	31.255
10141.75	10.456	53.503	0.34	2.008	19.45	-60.198	29.652
10142	10.471	54.201	0.339	2.006	18.175	-60.64	28.183
10142.25	10.495	55.009	0.34	2.006	17.01	-60.954	26.969
10142.5	10.523	55.861	0.344	2.006	16.021	-61.123	26
10142.75	10.55	56.597	0.348	2.006	15.228	-61.149	25.142
10143	10.572	57.068	0.345	2.007	14.625	-61.058	24.173
10143.25	10.585	57.263	0.343	2.008	14.188	-60.899	22.85
10143.5	10.587	57.346	0.341	2.009	13.884	-60.722	21.072
10143.75	10.579	57.424	0.341	2.011	13.675	-60.566	18.977
10144	10.562	57.571	0.342	2.013	13.52	-60.445	16.849
10144.25	10.537	57.834	0.344	2.015	13.378	-60.352	14.947
10144.5	10.508	58.285	0.347	2.017	13.215	-60.276	13.416
10144.75	10.481	58.995	0.351	2.018	13.015	-60.217	12.286
10145	10.459	59.93	0.356	2.02	12.781	-60.189	11.517
10145.25	10.444	60.835	0.362	2.02	12.535	-60.211	11.04
10145.5	10.435	61.457	0.368	2.021	12.32	-60.278	10.784
10145.75	10.431	61.769	0.373	2.021	12.192	-60.365	10.685
10146	10.429	61.897	0.376	2.021	12.204	-60.439	10.705
10146.25	10.428	61.906	0.377	2.02	12.392	-60.475	10.837
10146.5	10.428	61.796	0.376	2.019	12.765	-60.487	11.119
10146.75	10.428	61.503	0.373	2.019	13.307	-60.525	11.622
10147	10.427	60.865	0.369	2.019	13.982	-60.658	12.449
10147.25	10.427	59.789	0.366	2.019	14.752	-60.932	13.712
10147.5	10.427	58.382	0.363	2.02	15.598	-61.352	15.501
10147.75	10.426	56.899	0.361	2.022	16.534	-61.874	17.817
10148	10.426	55.548	0.359	2.024	17.596	-62.431	20.465
10148.25	10.427	54.477	0.357	2.027	18.808	-62.968	22.981
10148.5	10.433	53.676	0.354	2.03	20.155	-63.455	24.81
10148.75	10.445	53.072	0.349	2.033	21.577	-63.883	25.688
10149	10.465	52.669	0.345	2.036	22.987	-64.252	25.758
10149.25	10.493	52.43	0.339	2.039	24.291	-64.56	25.346
10149.5	10.525	52.355	0.335	2.041	25.424	-64.787	24.749
10149.75	10.555	52.467	0.332	2.042	26.375	-64.906	24.189
10150	10.579	52.754	0.33	2.043	27.185	-64.895	23.812
10150.25	10.594	53.199	0.33	2.042	27.902	-64.76	23.688
10150.5	10.599	53.753	0.33	2.041	28.527	-64.534	23.814
10150.75	10.597	54.372	0.331	2.038	28.991	-64.258	24.106
10151	10.591	54.886	0.333	2.036	29.191	-63.972	24.408
10151.25	10.585	55.062	0.336	2.032	29.071	-63.714	24.56
10151.5	10.579	54.81	0.34	2.029	28.684	-63.511	24.481
10151.75	10.574	54.251	0.343	2.026	28.178	-63.378	24.21
10152	10.57	53.626	0.346	2.024	27.695	-63.323	23.868
10152.25	10.567	53.106	0.348	2.022	27.29	-63.343	23.554
10152.5	10.567	52.891	0.347	2.021	26.916	-63.42	23.307
10152.75	10.568	53.157	0.345	2.022	26.484	-63.528	23.124
10153	10.572	53.853	0.342	2.023	25.94	-63.636	22.98
10153.25	10.578	54.781	0.338	2.026	25.312	-63.735	22.819
10153.5	10.586	55.644	0.335	2.029	24.695	-63.843	22.562
10153.75	10.597	56.113	0.331	2.033	24.189	-63.988	22.14
10154	10.611	56.032	0.328	2.038	23.851	-64.169	21.525
10154.25	10.626	55.435	0.325	2.042	23.683	-64.358	20.755
10154.5	10.64	54.542	0.323	2.047	23.661	-64.502	19.945
10154.75	10.652	53.695	0.322	2.05	23.758	-64.545	19.255
10155	10.66	53.163	0.322	2.053	23.97	-64.461	18.837
10155.25	10.665	52.93	0.322	2.054	24.315	-64.273	18.788
10155.5	10.669	52.809	0.324	2.056	24.818	-64.037	19.134
10155.75	10.675	52.682	0.327	2.055	25.468	-63.815	19.812
10156	10.68	52.535	0.332	2.055	26.187	-63.646	20.662
10156.25	10.682	52.457	0.338	2.054	26.82	-63.534	21.454
10156.5	10.678	52.536	0.343	2.053	27.189	-63.461	21.967
10156.75	10.666	52.762	0.346	2.052	27.185	-63.407	22.115
10157	10.649	53.048	0.347	2.052	26.834	-63.361	21.989
10157.25	10.632	53.383	0.345	2.052	26.284	-63.334	21.785
10157.5	10.617	53.797	0.342	2.053	25.723	-63.349	21.687
10157.75	10.608	54.335	0.335	2.055	25.276	-63.426	21.819
10158	10.607	54.951	0.328	2.058	24.941	-63.562	22.244
10158.25	10.613	55.552	0.32	2.061	24.608	-63.737	22.95
10158.5	10.626	55.93	0.312	2.065	24.134	-63.913	23.818
10158.75	10.643	55.896	0.305	2.068	23.437	-64.057	24.576
10159	10.657	55.428	0.3	2.072	22.544	-64.149	24.792
10159.25	10.66	54.715	0.296	2.075	21.559	-64.175	24.047
10159.5	10.646	54.031	0.295	2.079	20.593	-64.125	22.26
10159.75	10.614	53.603	0.296	2.08	19.709	-63.993	19.805
10160	10.571	53.505	0.298	2.082	18.901	-63.772	17.246
10160.25	10.525	53.724	0.301	2.081	18.111	-63.469	15.006
10160.5	10.485	54.223	0.306	2.081	17.272	-63.108	13.252
10160.75	10.457	54.986	0.31	2.078	16.366	-62.717	11.973
10161	10.441	55.939	0.313	2.076	15.431	-62.321	11.09
10161.25	10.432	56.945	0.315	2.072	14.546	-61.927	10.503
10161.5	10.427	57.877	0.318	2.069	13.793	-61.527	10.119
10161.75	10.425	58.551	0.32	2.065	13.226	-61.115	9.858
10162	10.427	58.822	0.321	2.062	12.855	-60.702	9.67
10162.25	10.431	58.6	0.322	2.058	12.654	-60.325	9.533
10162.5	10.439	57.947	0.325	2.055	12.571	-60.02	9.453
10162.75	10.449	57.004	0.331	2.053	12.547	-59.806	9.457
10163	10.458	56.009	0.34	2.05	12.548	-59.679	9.576
10163.25	10.466	55.124	0.35	2.048	12.569	-59.617	9.845
10163.5	10.471	54.419	0.36	2.046	12.635	-59.583	10.297
10163.75	10.474	53.897	0.369	2.044	12.781	-59.544	10.95
10164	10.476	53.569	0.375	2.043	13.017	-59.47	11.781
10164.25	10.477	53.486	0.377	2.042	13.315	-59.34	12.672
10164.5	10.476	53.733	0.375	2.04	13.597	-59.139	13.371
10164.75	10.473	54.359	0.372	2.04	13.746	-58.858	13.562
10165	10.468	55.379	0.37	2.039	13.655	-58.5	13.115
10165.25	10.461	56.634	0.365	2.039	13.289	-58.098	12.236
10165.5	10.454	57.792	0.361	2.038	12.706	-57.713	11.288
10165.75	10.449	58.567	0.36	2.038	12.012	-57.41	10.536
10166	10.447	58.881	0.361	2.038	11.294	-57.24	10.071
10166.25	10.446	58.773	0.362	2.038	10.593	-57.218	9.854
10166.5	10.448	58.389	0.361	2.039	9.906	-57.313	9.751
10166.75	10.448	58.007	0.359	2.04	9.214	-57.47	9.583
10167	10.448	57.807	0.357	2.042	8.512	-57.629	9.205
10167.25	10.448	57.793	0.353	2.044	7.816	-57.742	8.592
10167.5	10.448	57.911	0.35	2.047	7.159	-57.779	7.843
10167.75	10.45	58.031	0.347	2.05	6.576	-57.721	7.084
10168	10.454	58.114	0.345	2.054	6.087	-57.546	6.4
10168.25	10.46	58.295	0.343	2.058	5.698	-57.226	5.821
10168.5	10.467	58.76	0.342	2.062	5.41	-56.735	5.341
10168.75	10.473	59.633	0.34	2.066	5.217	-56.072	4.945
10169	10.476	61.031	0.339	2.07	5.115	-55.272	4.622
10169.25	10.476	62.838	0.338	2.072	5.098	-54.411	4.372
10169.5	10.47	64.618	0.338	2.073	5.156	-53.609	4.2
10169.75	10.462	65.821	0.34	2.073	5.277	-53.013	4.116
10170	10.451	65.981	0.343	2.073	5.449	-52.758	4.136
10170.25	10.442	64.909	0.345	2.07	5.665	-52.923	4.282
10170.5	10.436	62.817	0.344	2.068	5.927	-53.499	4.586
10170.75	10.433	60.273	0.342	2.064	6.261	-54.407	5.094
10171	10.431	57.923	0.336	2.061	6.71	-55.524	5.871
10171.25	10.432	56.242	0.33	2.057	7.335	-56.72	6.999
10171.5	10.432	55.319	0.324	2.054	8.215	-57.896	8.549
10171.75	10.434	54.86	0.32	2.052	9.433	-58.995	10.516
10172	10.436	54.461	0.316	2.05	11.062	-59.998	12.71
10172.25	10.439	53.917	0.312	2.049	13.123	-60.901	14.716
10172.5	10.441	53.265	0.308	2.049	15.513	-61.699	16.114
10172.75	10.443	52.657	0.304	2.049	17.963	-62.388	16.802
10173	10.444	52.166	0.302	2.049	20.13	-62.974	17.028
10173.25	10.445	51.806	0.303	2.05	21.784	-63.472	17.15
10173.5	10.444	51.551	0.307	2.05	22.927	-63.896	17.439
10173.75	10.444	51.372	0.312	2.05	23.697	-64.268	18.037
10174	10.444	51.266	0.311	2.051	24.213	-64.617	18.995
10174.25	10.443	51.205	0.309	2.051	24.512	-64.962	20.289
10174.5	10.442	51.197	0.312	2.051	24.592	-65.307	21.809
10174.75	10.44	51.234	0.315	2.05	24.466	-65.645	23.36
10175	10.437	51.267	0.315	2.05	24.177	-65.964	24.716
10175.25	10.435	51.271	0.312	2.05	23.785	-66.258	25.726
10175.5	10.435	51.312	0.309	2.05	23.338	-66.528	26.391
10175.75	10.437	51.463	0.306	2.05	22.872	-66.775	26.847
10176	10.441	51.651	0.305	2.05	22.419	-66.995	27.289
10176.25	10.444	51.704	0.306	2.05	22.004	-67.181	27.858
10176.5	10.446	51.552	0.306	2.051	21.65	-67.332	28.546
10176.75	10.445	51.252	0.306	2.052	21.365	-67.451	29.143
10177	10.442	50.953	0.305	2.052	21.141	-67.54	29.253
10177.25	10.438	50.796	0.305	2.053	20.953	-67.599	28.472
10177.5	10.437	50.835	0.306	2.054	20.764	-67.617	26.693
10177.75	10.438	51.029	0.31	2.055	20.543	-67.569	24.246
10178	10.441	51.28	0.315	2.056	20.264	-67.43	21.689
10178.25	10.445	51.49	0.319	2.057	19.921	-67.194	19.494
10178.5	10.449	51.552	0.32	2.058	19.518	-66.88	17.922
10178.75	10.45	51.457	0.319	2.058	19.072	-66.536	17.068
10179	10.45	51.331	0.318	2.058	18.606	-66.208	16.95
10179.25	10.448	51.279	0.319	2.058	18.151	-65.923	17.574
10179.5	10.446	51.293	0.322	2.058	17.734	-65.69	18.929
10179.75	10.442	51.246	0.327	2.058	17.373	-65.502	20.914
10180	10.439	50.934	0.325	2.058	17.087	-65.35	23.228
10180.25	10.437	50.279	0.319	2.059	16.895	-65.225	25.319
10180.5	10.435	49.437	0.312	2.059	16.827	-65.12	26.584
10180.75	10.435	48.704	0.311	2.061	16.913	-65.032	26.802
10181	10.437	48.468	0.312	2.063	17.173	-64.955	26.308
10181.25	10.44	48.982	0.314	2.065	17.595	-64.881	25.667
10181.5	10.446	50.182	0.314	2.067	18.128	-64.802	25.342
10181.75	10.452	51.785	0.311	2.069	18.685	-64.714	25.601
10182	10.459	53.513	0.308	2.071	19.175	-64.614	26.544
10182.25	10.464	55.257	0.306	2.072	19.531	-64.503	28.127
10182.5	10.467	57.05	0.308	2.072	19.734	-64.386	30.145
10182.75	10.469	58.835	0.312	2.072	19.82	-64.278	32.197
10183	10.471	60.29	0.316	2.071	19.849	-64.203	33.768
10183.25	10.471	60.956	0.32	2.068	19.882	-64.188	34.469
10183.5	10.469	60.536	0.323	2.066	19.963	-64.26	34.249
10183.75	10.46	59.007	0.326	2.062	20.111	-64.433	33.396
10184	10.443	56.773	0.33	2.059	20.321	-64.703	32.326
10184.25	10.419	54.562	0.332	2.056	20.568	-65.058	31.367
10184.5	10.393	52.903	0.332	2.053	20.82	-65.478	30.639
10184.75	10.369	51.91	0.331	2.052	21.049	-65.938	30.07
10185	10.349	51.393	0.33	2.05	21.25	-66.413	29.51
10185.25	10.335	51.027	0.328	2.051	21.43	-66.882	28.828
10185.5	10.326	50.613	0.326	2.051	21.58	-67.33	28.029
10185.75	10.322	50.211	0.323	2.053	21.656	-67.754	27.286
10186	10.323	49.996	0.32	2.055	21.607	-68.149	26.854
10186.25	10.333	50.048	0.316	2.058	21.415	-68.513	26.92
10186.5	10.351	50.256	0.309	2.061	21.124	-68.847	27.471
10186.75	10.375	50.38	0.303	2.063	20.817	-69.158	28.167
10187	10.401	50.208	0.3	2.066	20.562	-69.458	28.338
10187.25	10.422	49.813	0.297	2.067	20.368	-69.75	27.344
10187.5	10.436	49.483	0.294	2.068	20.17	-70.033	25.156
10187.75	10.443	49.519	0.292	2.068	19.85	-70.297	22.426
10188	10.444	50.147	0.291	2.067	19.302	-70.53	19.905
10188.25	10.441	51.509	0.295	2.065	18.488	-70.72	17.981
10188.5	10.437	53.655	0.301	2.063	17.447	-70.861	16.688
10188.75	10.434	56.569	0.309	2.061	16.261	-70.952	15.878
10189	10.432	60.092	0.317	2.058	15.007	-70.994	15.337
10189.25	10.43	63.822	0.32	2.057	13.744	-70.984	14.839
10189.5	10.43	67.145	0.323	2.055	12.516	-70.914	14.211
10189.75	10.434	69.415	0.327	2.056	11.364	-70.772	13.374
10190	10.443	70.232	0.334	2.056	10.328	-70.544	12.342
10190.25	10.456	69.677	0.339	2.059	9.436	-70.226	11.183
10190.5	10.474	68.263	0.341	2.061	8.7	-69.826	9.983
10190.75	10.491	66.62	0.341	2.066	8.11	-69.353	8.82
10191	10.506	65.314	0.34	2.07	7.641	-68.808	7.762
10191.25	10.517	64.614	0.339	2.074	7.264	-68.17	6.865
10191.5	10.525	64.396	0.339	2.079	6.95	-67.431	6.162
10191.75	10.532	64.369	0.339	2.082	6.678	-66.659	5.668
10192	10.539	64.269	0.34	2.085	6.439	-66.009	5.385
10192.25	10.547	63.921	0.342	2.086	6.232	-65.69	5.302
10192.5	10.552	63.313	0.345	2.087	6.064	-65.871	5.408
10192.75	10.55	62.515	0.349	2.085	5.943	-66.597	5.682
10193	10.539	61.597	0.353	2.084	5.879	-67.742	6.085
10193.25	10.515	60.615	0.357	2.082	5.879	-69.064	6.548
10193.5	10.48	59.63	0.361	2.079	5.943	-70.303	6.976
10193.75	10.439	58.685	0.365	2.078	6.064	-71.288	7.283
10194	10.397	57.918	0.368	2.077	6.231	-71.98	7.428
10194.25	10.36	57.62	0.37	2.077	6.421	-72.44	7.426
10194.5	10.329	58.029	0.371	2.078	6.614	-72.762	7.33
10194.75	10.306	59.257	0.372	2.081	6.787	-73.031	7.199
10195	10.29	61.337	0.373	2.084	6.929	-73.305	7.095
10195.25	10.279	64.198	0.371	2.087	7.034	-73.618	7.066
10195.5	10.274	67.617	0.368	2.091	7.101	-73.977	7.154
10195.75	10.274	71.193	0.363	2.095	7.132	-74.379	7.385
10196	10.277	74.34	0.357	2.098	7.136	-74.807	7.769
10196.25	10.282	76.446	0.352	2.099	7.126	-75.239	8.293
10196.5	10.287	77.103	0.347	2.1	7.118	-75.652	8.905
10196.75	10.291	76.28	0.345	2.099	7.126	-76.026	9.507
10197	10.294	74.184	0.343	2.098	7.16	-76.339	9.973
10197.25	10.295	71.335	0.342	2.095	7.224	-76.565	10.199
10197.5	10.292	68.49	0.343	2.091	7.308	-76.68	10.151
10197.75	10.286	66.332	0.343	2.088	7.395	-76.671	9.87
10198	10.278	65.238	0.344	2.084	7.455	-76.548	9.445
10198.25	10.272	65.276	0.345	2.08	7.461	-76.335	8.971
10198.5	10.27	66.246	0.345	2.077	7.394	-76.069	8.523
10198.75	10.275	67.854	0.346	2.075	7.256	-75.782	8.152
10199	10.286	69.73	0.349	2.073	7.065	-75.495	7.879
10199.25	10.301	71.52	0.353	2.073	6.852	-75.21	7.708
10199.5	10.315	72.902	0.356	2.073	6.646	-74.925	7.624
10199.75	10.326	73.676	0.358	2.073	6.467	-74.641	7.605
10200	10.332	73.579	0.358	2.074	6.325	-74.367	7.623
10200.25	10.334	72.43	0.355	2.074	6.225	-74.118	7.646
10200.5	10.335	70.336	0.35	2.075	6.168	-73.903	7.641
10200.75	10.334	67.613	0.343	2.075	6.156	-73.713	7.562
10201	10.334	64.626	0.334	2.075	6.192	-73.514	7.36
10201.25	10.334	61.732	0.326	2.073	6.283	-73.246	7.002
10201.5	10.335	59.169	0.32	2.072	6.426	-72.832	6.509
10201.75	10.335	57.152	0.319	2.069	6.61	-72.219	5.958
10202	10.335	55.87	0.323	2.066	6.805	-71.416	5.442
10202.25	10.335	55.296	0.33	2.063	6.96	-70.498	5.04
10202.5	10.335	55.218	0.328	2.06	7.003	-69.572	4.799
10202.75	10.334	55.429	0.324	2.059	6.87	-68.735	4.742
10203	10.332	55.775	0.321	2.058	6.542	-68.029	4.884
10203.25	10.329	56.176	0.327	2.061	6.063	-67.428	5.22
10203.5	10.324	56.741	0.327	2.064	5.518	-66.849	5.664
10203.75	10.319	57.552	0.326	2.072	4.982	-66.163	5.962
10204	10.314	58.534	0.323	2.08	4.505	-65.244	5.741
10204.25	10.31	59.539	0.323	2.092	4.102	-64.016	4.931
10204.5	10.309	60.405	0.329	2.104	3.77	-62.469	3.922
10204.75	10.31	61.057	0.336	2.118	3.5	-60.66	3.077
10205	10.313	61.516	0.344	2.132	3.28	-58.694	2.492
10205.25	10.316	61.835	0.35	2.144	3.101	-56.7	2.125
10205.5	10.32	62.112	0.355	2.156	2.953	-54.779	1.913
10205.75	10.324	62.449	0.359	2.164	2.825	-52.974	1.804
10206	10.328	62.962	0.361	2.171	2.707	-51.294	1.76
10206.25	10.332	63.739	0.361	2.174	2.588	-49.807	1.754
10206.5	10.336	64.804	0.361	2.176	2.466	-48.682	1.765
10206.75	10.337	66.069	0.362	2.173	2.345	-48.105	1.784
10207	10.334	67.336	0.363	2.171	2.233	-48.133	1.806
10207.25	10.328	68.368	0.365	2.166	2.14	-48.588	1.824
10207.5	10.317	69.024	0.367	2.161	2.07	-49.028	1.83
10207.75	10.304	69.289	0.371	2.155	2.024	-48.905	1.813
10208	10.29	69.279	0.375	2.15	1.998	-47.848	1.772
10208.25	10.278	69.073	0.38	2.145	1.982	-45.904	1.72
10208.5	10.271	68.851	0.384	2.14	1.965	-43.568	1.675
10208.75	10.27	68.836	0.388	2.136	1.939	-41.596	1.654
10209	10.274	69.109	0.391	2.133	1.897	-40.64	1.665
10209.25	10.283	69.492	0.39	2.131	1.839	-40.969	1.705
10209.5	10.295	69.651	0.388	2.129	1.768	-42.397	1.762
10209.75	10.31	69.329	0.384	2.13	1.692	-44.404	1.814
10210	10.327	68.576	0.381	2.131	1.615	-46.361	1.838
10210.25	10.346	67.683	0.38	2.134	1.542	-47.765	1.82
10210.5	10.366	67.04	0.382	2.137	1.475	-48.371	1.76
10210.75	10.386	66.908	0.385	2.143	1.415	-48.163	1.675
10211	10.404	67.324	0.388	2.148	1.361	-47.283	1.581
10211.25	10.418	68.102	0.391	2.153	1.314	-45.936	1.491
10211.5	10.426	68.909	0.392	2.158	1.272	-44.294	1.413
10211.75	10.428	69.593	0.392	2.162	1.236	-42.475	1.347
10212	10.423	70.259	0.391	2.166	1.207	-40.601	1.294
10212.25	10.41	71.082	0.391	2.166	1.182	-38.863	1.255
10212.5	10.392	72.11	0.39	2.166	1.163	-37.516	1.235
10212.75	10.372	73.167	0.386	2.164	1.147	-36.842	1.245
10213	10.354	73.891	0.377	2.161	1.135	-37.096	1.296
10213.25	10.34	73.886	0.365	2.156	1.126	-38.409	1.397
10213.5	10.332	72.904	0.359	2.152	1.124	-40.729	1.549
10213.75	10.327	71.008	0.357	2.147	1.13	-43.816	1.736
10214	10.324	68.479	0.356	2.143	1.145	-47.308	1.905
10214.25	10.32	65.781	0.353	2.14	1.171	-50.802	1.984
10214.5	10.315	63.393	0.347	2.138	1.205	-53.914	1.942
10214.75	10.309	61.597	0.339	2.137	1.246	-56.323	1.822
10215	10.303	60.504	0.332	2.136	1.286	-57.862	1.691
10215.25	10.298	60.096	0.326	2.137	1.319	-58.606	1.593
10215.5	10.296	60.291	0.323	2.138	1.335	-58.851	1.546
10215.75	10.295	60.997	0.323	2.14	1.326	-58.955	1.547
10216	10.296	62.103	0.325	2.142	1.29	-59.174	1.586
10216.25	10.297	63.406	0.328	2.146	1.232	-59.535	1.642
10216.5	10.298	64.548	0.333	2.15	1.161	-59.796	1.687
10216.75	10.298	65.209	0.337	2.156	1.086	-59.515	1.691
10217	10.296	65.427	0.341	2.163	1.014	-58.228	1.641
10217.25	10.29	65.484	0.345	2.171	0.948	-55.655	1.547
10217.5	10.282	65.808	0.347	2.18	0.889	-51.845	1.432
10217.75	10.273	66.793	0.348	2.191	0.835	-47.157	1.319
10218	10.264	68.648	0.348	2.202	0.787	-42.134	1.219
10218.25	10.256	71.316	0.348	2.213	0.742	-37.338	1.138
10218.5	10.252	74.456	0.349	2.223	0.702	-33.234	1.075
10218.75	10.253	77.468	0.35	2.232	0.666	-30.091	1.03
10219	10.259	79.801	0.351	2.241	0.637	-27.93	1
10219.25	10.27	81.168	0.351	2.246	0.613	-26.573	0.981
10219.5	10.284	81.56	0.351	2.251	0.596	-25.74	0.97
10219.75	10.3	81.158	0.35	2.252	0.585	-25.191	0.962
10220	10.315	80.468	0.35	2.252	0.581	-24.82	0.955
10220.25	10.327	80.124	0.35	2.249	0.582	-24.651	0.948
10220.5	10.334	80.475	0.351	2.245	0.589	-24.744	0.943
10220.75	10.337	81.368	0.354	2.239	0.601	-25.085	0.94
10221	10.339	82.27	0.357	2.232	0.616	-25.549	0.94
10221.25	10.34	82.644	0.361	2.224	0.635	-25.952	0.939
10221.5	10.341	82.234	0.361	2.216	0.655	-26.233	0.934
10221.75	10.343	81.149	0.358	2.208	0.676	-26.606	0.926
10222	10.344	79.643	0.352	2.2	0.695	-27.522	0.92
10222.25	10.344	77.999	0.345	2.194	0.713	-29.444	0.925
10222.5	10.343	76.4	0.343	2.188	0.728	-32.55	0.949
10222.75	10.34	74.94	0.344	2.186	0.741	-36.52	0.994
10223	10.337	73.668	0.346	2.184	0.753	-40.58	1.053
10223.25	10.335	72.669	0.346	2.186	0.765	-43.83	1.111
10223.5	10.334	72.033	0.345	2.187	0.778	-45.651	1.144
10223.75	10.335	71.762	0.343	2.191	0.791	-45.991	1.134
10224	10.338	71.687	0.34	2.195	0.805	-45.349	1.087
10224.25	10.344	71.604	0.335	2.198	0.817	-44.493	1.024
10224.5	10.351	71.323	0.329	2.202	0.826	-44.092	0.966
10224.75	10.355	70.785	0.322	2.203	0.831	-44.452	0.923
10225	10.355	70.04	0.315	2.203	0.831	-45.469	0.899
10225.25	10.346	69.188	0.31	2.2	0.829	-46.766	0.889
10225.5	10.328	68.308	0.308	2.197	0.824	-47.92	0.888
10225.75	10.302	67.449	0.309	2.19	0.819	-48.664	0.888
10226	10.274	66.704	0.315	2.184	0.815	-48.962	0.886
10226.25	10.247	66.138	0.325	2.176	0.813	-48.965	0.883
10226.5	10.226	65.798	0.335	2.169	0.812	-48.908	0.884
10226.75	10.21	65.674	0.343	2.163	0.814	-49.031	0.893
10227	10.198	65.671	0.349	2.158	0.818	-49.522	0.912
10227.25	10.189	65.637	0.353	2.156	0.824	-50.452	0.938
10227.5	10.181	65.314	0.355	2.153	0.83	-51.754	0.964
10227.75	10.176	64.573	0.357	2.155	0.837	-53.261	0.982
10228	10.178	63.546	0.356	2.156	0.843	-54.793	0.986
10228.25	10.19	62.482	0.353	2.161	0.847	-56.221	0.978
10228.5	10.214	61.71	0.349	2.165	0.848	-57.476	0.964
10228.75	10.247	61.462	0.344	2.17	0.846	-58.515	0.952
10229	10.284	61.743	0.339	2.176	0.839	-59.296	0.946
10229.25	10.32	62.296	0.335	2.18	0.826	-59.792	0.943
10229.5	10.347	62.744	0.332	2.184	0.808	-59.993	0.942
10229.75	10.364	62.833	0.332	2.185	0.784	-59.888	0.939
10230	10.37	62.665	0.335	2.187	0.756	-59.47	0.933
10230.25	10.369	62.643	0.343	2.185	0.725	-58.703	0.925
10230.5	10.367	63.155	0.354	2.184	0.693	-57.461	0.915
10230.75	10.371	64.284	0.365	2.182	0.663	-55.477	0.905
10231	10.385	65.876	0.371	2.179	0.636	-52.431	0.892
10231.25	10.411	67.622	0.371	2.178	0.613	-48.139	0.874
10231.5	10.446	69.214	0.368	2.177	0.595	-42.704	0.85
10231.75	10.488	70.399	0.365	2.179	0.583	-36.555	0.819
10232	10.532	71.116	0.364	2.181	0.575	-30.337	0.784
10232.25	10.578	71.519	0.364	2.186	0.572	-24.696	0.746
10232.5	10.628	71.888	0.364	2.19	0.572	-20.079	0.712
10232.75	10.685	72.425	0.362	2.197	0.574	-16.625	0.683
10233	10.746	73.169	0.36	2.204	0.575	-14.198	0.664
10233.25	10.808	74.114	0.358	2.212	0.576	-12.537	0.655
10233.5	10.865	75.23	0.357	2.22	0.575	-11.429	0.657
10233.75	10.91	76.371	0.357	2.226	0.573	-10.791	0.668
10234	10.938	77.317	0.357	2.233	0.57	-10.604	0.686
10234.25	10.943	77.903	0.357	2.238	0.566	-10.819	0.706
10234.5	10.921	78.101	0.356	2.243	0.563	-11.332	0.721
10234.75	10.874	78.021	0.354	2.245	0.56	-12.034	0.728
10235	10.809	77.757	0.352	2.248	0.557	-12.922	0.725
10235.25	10.735	77.308	0.352	2.25	0.555	-14.16	0.718
10235.5	10.664	76.639	0.354	2.251	0.552	-15.998	0.713
10235.75	10.602	75.769	0.356	2.252	0.548	-18.554	0.714
10236	10.547	74.816	0.36	2.252	0.542	-21.636	0.722
10236.25	10.492	73.956	0.364	2.252	0.535	-24.739	0.734
10236.5	10.432	73.485	0.368	2.251	0.525	-27.187	0.744
10236.75	10.366	73.672	0.371	2.251	0.513	-28.356	0.746
10237	10.302	74.623	0.375	2.251	0.502	-27.892	0.734
10237.25	10.25	76.23	0.379	2.251	0.491	-25.797	0.71
10237.5	10.215	78.256	0.385	2.251	0.481	-22.41	0.678
10237.75	10.196	80.398	0.392	2.252	0.472	-18.277	0.644
10238	10.187	82.503	0.401	2.253	0.466	-13.996	0.613
10238.25	10.182	84.521	0.408	2.255	0.461	-10.1	0.589
10238.5	10.177	86.446	0.414	2.257	0.458	-6.981	0.572
10238.75	10.171	88.191	0.419	2.259	0.456	-4.808	0.563
10239	10.166	89.646	0.421	2.262	0.456	-3.499	0.559
10239.25	10.163	90.754	0.423	2.264	0.457	-2.808	0.56
10239.5	10.162	91.54	0.424	2.267	0.459	-2.479	0.565
10239.75	10.162	92.071	0.424	2.269	0.461	-2.333	0.572
10240	10.164	92.496	0.426	2.271	0.464	-2.267	0.58
10240.25	10.165	93.071	0.429	2.272	0.468	-2.234	0.588
10240.5	10.164	93.871	0.433	2.272	0.472	-2.227	0.595
10240.75	10.164	94.723	0.437	2.273	0.477	-2.253	0.599
10241	10.162	95.45	0.441	2.273	0.482	-2.315	0.602
10241.25	10.16	95.872	0.442	2.273	0.488	-2.4	0.604
10241.5	10.159	95.87	0.443	2.272	0.493	-2.484	0.606
10241.75	10.157	95.43	0.442	2.272	0.498	-2.534	0.609
10242	10.157	94.744	0.44	2.272	0.502	-2.508	0.614
10242.25	10.157	94.116	0.439	2.273	0.505	-2.371	0.618
10242.5	10.158	93.793	0.439	2.273	0.507	-2.124	0.621
10242.75	10.159	93.898	0.439	2.273	0.509	-1.796	0.623
10243	10.159	94.369	0.44	2.273	0.51	-1.437	0.623
10243.25	10.159	95.07	0.441	2.273	0.511	-1.102	0.622
10243.5	10.159	95.821	0.442	2.273	0.511	-0.838	0.62
10243.75	10.158	96.319	0.442	2.274	0.511	-0.679	0.618
10244	10.157	96.391	0.442	2.274	0.511	-0.631	0.616
10244.25	10.155	96.069	0.441	2.276	0.51	-0.668	0.614
10244.5	10.154	95.441	0.439	2.277	0.508	-0.752	0.611
10244.75	10.152	94.696	0.436	2.28	0.506	-0.841	0.607
10245	10.149	94.146	0.433	2.282	0.504	-0.914	0.602
10245.25	10.148	94.094	0.43	2.285	0.503	-0.978	0.597
10245.5	10.147	94.558	0.428	2.287	0.501	-1.057	0.594
10245.75	10.148	95.28	0.427	2.29	0.501	-1.181	0.591
10246	10.149	95.885	0.426	2.292	0.501	-1.369	0.591
10246.25	10.15	96.024	0.425	2.294	0.502	-1.643	0.59
10246.5	10.15	95.589	0.425	2.295	0.504	-2.042	0.588
10246.75	10.146	94.764	0.425	2.296	0.507	-2.647	0.585
10247	10.141	93.814	0.424	2.297	0.51	-3.558	0.581
10247.25	10.135	92.849	0.422	2.297	0.513	-4.844	0.577
10247.5	10.13	91.763	0.415	2.297	0.517	-6.491	0.576
10247.75	10.127	90.331	0.405	2.297	0.52	-8.374	0.578
10248	10.127	88.539	0.393	2.298	0.523	-10.294	0.585
10248.25	10.132	86.639	0.382	2.298	0.526	-12.037	0.596
10248.5	10.139	84.993	0.374	2.299	0.529	-13.44	0.609
10248.75	10.146	83.798	0.37	2.299	0.533	-14.42	0.623
10249	10.153	83.08	0.368	2.299	0.537	-14.981	0.635
10249.25	10.156	82.606	0.367	2.298	0.541	-15.187	0.643
10249.5	10.157	82.017	0.365	2.297	0.545	-15.114	0.647
10249.75	10.158	81.187	0.367	2.297	0.549	-14.827	0.649
10250	10.163	80.331	0.371	2.296	0.552	-14.388	0.65
10250.25	10.177	79.722	0.374	2.295	0.554	-13.875	0.651
10250.5	10.201	79.619	0.375	2.295	0.555	-13.41	0.651
10250.75	10.232	80.156	0.372	2.296	0.556	-13.118	0.652
10251	10.265	81.188	0.366	2.296	0.556	-13.069	0.653
10251.25	10.294	82.392	0.36	2.298	0.555	-13.235	0.652
10251.5	10.316	83.442	0.355	2.299	0.554	-13.516	0.65
10251.75	10.332	84.16	0.352	2.301	0.553	-13.785	0.644
10252	10.345	84.469	0.35	2.303	0.551	-13.954	0.634
10252.25	10.357	84.324	0.348	2.304	0.549	-14.035	0.622
10252.5	10.367	83.751	0.346	2.305	0.546	-14.151	0.61
10252.75	10.372	82.887	0.345	2.304	0.543	-14.48	0.602
10253	10.371	81.9	0.346	2.303	0.54	-15.155	0.597
10253.25	10.365	80.952	0.347	2.301	0.536	-16.189	0.596
10253.5	10.356	80.14	0.348	2.299	0.533	-17.48	0.596
10253.75	10.346	79.674	0.348	2.296	0.53	-18.865	0.595
10254	10.337	79.697	0.348	2.292	0.527	-20.178	0.593
10254.25	10.329	80.097	0.349	2.289	0.525	-21.289	0.59
10254.5	10.323	80.559	0.351	2.286	0.523	-22.133	0.587
10254.75	10.319	80.83	0.354	2.283	0.522	-22.684	0.587
10255	10.321	80.887	0.358	2.281	0.521	-22.914	0.59
10255.25	10.33	80.807	0.362	2.28	0.52	-22.774	0.596
10255.5	10.347	80.644	0.365	2.279	0.52	-22.242	0.603
10255.75	10.369	80.566	0.366	2.279	0.52	-21.372	0.609
10256	10.392	80.79	0.366	2.28	0.52	-20.308	0.613
10256.25	10.413	81.378	0.364	2.282	0.521	-19.241	0.616
10256.5	10.433	82.145	0.361	2.283	0.522	-18.331	0.617
10256.75	10.456	82.836	0.359	2.285	0.524	-17.652	0.617
10257	10.484	83.335	0.358	2.287	0.525	-17.173	0.618
10257.25	10.516	83.68	0.357	2.288	0.527	-16.79	0.62
10257.5	10.55	83.992	0.358	2.29	0.528	-16.385	0.623
10257.75	10.579	84.33	0.359	2.289	0.53	-15.889	0.624
10258	10.603	84.632	0.362	2.288	0.532	-15.302	0.623
10258.25	10.626	84.847	0.365	2.285	0.533	-14.646	0.618
10258.5	10.658	85.012	0.371	2.283	0.534	-13.912	0.609
10258.75	10.707	85.23	0.378	2.278	0.536	-13.064	0.599
10259	10.777	85.677	0.387	2.274	0.537	-12.068	0.588
10259.25	10.858	86.495	0.397	2.27	0.538	-10.939	0.581
10259.5	10.931	87.605	0.406	2.265	0.539	-9.776	0.576
10259.75	10.98	88.73	0.416	2.262	0.54	-8.735	0.575
10260	10.995	89.591	0.424	2.258	0.54	-7.954	0.576
10260.25	10.979	90.051	0.43	2.257	0.54	-7.478	0.577
10260.5	10.944	90.229	0.435	2.255	0.539	-7.242	0.579
10260.75	10.903	90.386	0.437	2.255	0.538	-7.1	0.581
10261	10.873	90.619	0.436	2.255	0.537	-6.919	0.582
10261.25	10.863	90.823	0.434	2.257	0.535	-6.646	0.585
10261.5	10.88	90.858	0.43	2.258	0.532	-6.302	0.587
10261.75	10.921	90.737	0.425	2.261	0.53	-5.951	0.589
10262	10.975	90.521	0.418	2.263	0.527	-5.673	0.589
10262.25	11.026	90.277	0.411	2.265	0.525	-5.546	0.587
10262.5	11.06	90.002	0.404	2.267	0.523	-5.666	0.583
10262.75	11.069	89.653	0.397	2.27	0.522	-6.163	0.576
10263	11.047	89.102	0.391	2.272	0.52	-7.155	0.569
10263.25	10.998	88.323	0.385	2.274	0.519	-8.663	0.563
10263.5	10.927	87.367	0.378	2.277	0.518	-10.571	0.561
10263.75	10.84	86.361	0.371	2.281	0.516	-12.649	0.562
10264	10.746	85.436	0.364	2.284	0.514	-14.625	0.568
10264.25	10.652	84.69	0.356	2.289	0.513	-16.269	0.576
10264.5	10.569	84.189	0.35	2.294	0.512	-17.457	0.586
10264.75	10.503	83.938	0.346	2.301	0.511	-18.178	0.594
10265	10.458	83.828	0.344	2.307	0.511	-18.503	0.601
10265.25	10.436	83.785	0.342	2.314	0.512	-18.53	0.604
10265.5	10.436	83.779	0.339	2.321	0.514	-18.333	0.606
10265.75	10.466	83.834	0.335	2.327	0.516	-17.961	0.607
10266	10.533	83.91	0.331	2.333	0.518	-17.449	0.608
10266.25	10.64	83.911	0.328	2.337	0.52	-16.816	0.61
10266.5	10.788	83.785	0.327	2.34	0.523	-16.082	0.614
10266.75	10.96	83.555	0.327	2.341	0.526	-15.269	0.618
10267	11.129	83.293	0.33	2.341	0.53	-14.406	0.624
10267.25	11.262	83.127	0.334	2.337	0.534	-13.531	0.631
10267.5	11.339	83.166	0.341	2.333	0.538	-12.682	0.637
10267.75	11.356	83.49	0.353	2.327	0.543	-11.894	0.643
10268	11.321	84.016	0.368	2.321	0.548	-11.193	0.648
10268.25	11.251	84.591	0.382	2.313	0.553	-10.585	0.649
10268.5	11.161	85.175	0.385	2.306	0.558	-10.054	0.648
10268.75	11.06	85.822	0.38	2.3	0.562	-9.58	0.643
10269	10.956	86.544	0.373	2.294	0.566	-9.163	0.638
10269.25	10.854	87.244	0.371	2.29	0.569	-8.815	0.631
10269.5	10.764	87.745	0.377	2.286	0.571	-8.554	0.626
10269.75	10.696	87.919	0.388	2.286	0.573	-8.395	0.621
10270	10.657	87.722	0.393	2.285	0.575	-8.335	0.618
10270.25	10.653	87.324	0.395	2.286	0.576	-8.328	0.617
10270.5	10.693	86.915	0.394	2.288	0.577	-8.296	0.618
10270.75	10.782	86.703	0.393	2.29	0.578	-8.157	0.62
10271	10.907	86.909	0.393	2.293	0.58	-7.875	0.622
10271.25	11.037	87.537	0.392	2.296	0.581	-7.476	0.626
10271.5	11.132	88.315	0.389	2.298	0.583	-7.032	0.631
10271.75	11.163	88.858	0.384	2.3	0.585	-6.605	0.636
10272	11.126	88.886	0.38	2.302	0.587	-6.225	0.642
10272.25	11.042	88.512	0.378	2.302	0.589	-5.884	0.647
10272.5	10.946	88.201	0.379	2.302	0.592	-5.547	0.652
10272.75	10.868	88.568	0.383	2.301	0.595	-5.186	0.656
10273	10.823	89.879	0.388	2.299	0.598	-4.799	0.66
10273.25	10.802	91.789	0.392	2.296	0.601	-4.417	0.663
10273.5	10.793	93.519	0.396	2.293	0.604	-4.071	0.665
10273.75	10.784	94.314	0.401	2.289	0.606	-3.778	0.665
10274	10.776	93.923	0.406	2.284	0.607	-3.529	0.664
10274.25	10.771	92.779	0.411	2.279	0.608	-3.301	0.661
10274.5	10.771	91.782	0.415	2.275	0.609	-3.08	0.656
10274.75	10.781	91.628	0.418	2.27	0.609	-2.865	0.649
10275	10.802	92.444	0.42	2.266	0.608	-2.664	0.642
10275.25	10.837	93.798	0.423	2.264	0.606	-2.473	0.634
10275.5	10.884	95.116	0.425	2.261	0.604	-2.288	0.625
10275.75	10.937	96.016	0.428	2.259	0.601	-2.116	0.616
10276	10.982	96.46	0.431	2.258	0.598	-1.977	0.607
10276.25	11.002	96.59	0.434	2.258	0.595	-1.893	0.599
10276.5	10.986	96.547	0.436	2.258	0.591	-1.878	0.595
10276.75	10.928	96.478	0.437	2.259	0.587	-1.925	0.593
10277	10.836	96.571	0.437	2.259	0.582	-2.006	0.593
10277.25	10.721	96.758	0.437	2.26	0.578	-2.081	0.593
10277.5	10.598	96.848	0.436	2.26	0.573	-2.116	0.593
10277.75	10.477	96.716	0.435	2.261	0.569	-2.103	0.592
10278	10.367	96.263	0.434	2.261	0.566	-2.061	0.589
10278.25	10.273	95.439	0.435	2.261	0.563	-2.02	0.587
10278.5	10.198	94.389	0.436	2.261	0.56	-2.001	0.587
10278.75	10.145	93.469	0.438	2.261	0.557	-2.008	0.589
10279	10.112	93.076	0.44	2.262	0.555	-2.019	0.591
10279.25	10.097	93.432	0.442	2.262	0.553	-2.003	0.594
10279.5	10.091	94.511	0.443	2.262	0.551	-1.935	0.595
10279.75	10.09	96.015	0.445	2.262	0.551	-1.815	0.594
10280	10.09	97.572	0.45	2.262	0.55	-1.668	0.589
10280.25	10.089	98.899	0.456	2.261	0.55	-1.535	0.582
10280.5	10.086	99.756	0.463	2.261	0.55	-1.458	0.573
10280.75	10.082	99.928	0.468	2.26	0.551	-1.458	0.564
10281	10.078	99.363	0.472	2.259	0.551	-1.529	0.557
10281.25	10.075	98.174	0.475	2.258	0.552	-1.644	0.554
10281.5	10.073	96.677	0.475	2.257	0.553	-1.777	0.554
10281.75	10.071	95.357	0.475	2.255	0.554	-1.915	0.556
10282	10.069	94.65	0.474	2.254	0.555	-2.059	0.56
10282.25	10.066	94.666	0.473	2.252	0.556	-2.205	0.564
10282.5	10.06	95.314	0.473	2.251	0.557	-2.351	0.567
10282.75	10.052	96.321	0.474	2.251	0.557	-2.5	0.571
10283	10.043	97.237	0.475	2.25	0.558	-2.666	0.573
10283.25	10.033	97.663	0.476	2.25	0.558	-2.871	0.576
10283.5	10.025	97.46	0.478	2.25	0.558	-3.124	0.578
10283.75	10.018	96.73	0.479	2.251	0.559	-3.423	0.579
10284	10.015	95.612	0.479	2.253	0.56	-3.745	0.579
10284.25	10.014	94.327	0.477	2.254	0.56	-4.054	0.579
10284.5	10.015	93.215	0.475	2.256	0.561	-4.299	0.578
10284.75	10.019	92.532	0.473	2.258	0.562	-4.437	0.576
10285	10.026	92.408	0.47	2.26	0.564	-4.45	0.573
10285.25	10.033	92.721	0.467	2.262	0.565	-4.35	0.569
10285.5	10.042	93.225	0.464	2.264	0.566	-4.171	0.566
10285.75	10.05	93.766	0.462	2.265	0.568	-3.97	0.563
10286	10.059	94.259	0.46	2.267	0.57	-3.82	0.561
10286.25	10.067	94.689	0.459	2.268	0.572	-3.786	0.561
10286.5	10.075	95.14	0.458	2.269	0.574	-3.907	0.563
10286.75	10.083	95.762	0.456	2.269	0.577	-4.183	0.566
10287	10.09	96.586	0.454	2.27	0.58	-4.568	0.569
10287.25	10.096	97.499	0.452	2.27	0.583	-4.97	0.573
10287.5	10.1	98.383	0.45	2.271	0.587	-5.269	0.575
10287.75	10.103	99.073	0.449	2.271	0.59	-5.357	0.576
10288	10.103	99.381	0.448	2.271	0.592	-5.187	0.577
10288.25	10.102	99.182	0.448	2.27	0.595	-4.798	0.578
10288.5	10.099	98.528	0.448	2.27	0.597	-4.302	0.58
10288.75	10.097	97.723	0.448	2.27	0.599	-3.829	0.582
10289	10.096	97.03	0.447	2.27	0.601	-3.486	0.584
10289.25	10.096	96.491	0.446	2.271	0.602	-3.316	0.584
10289.5	10.099	96.096	0.444	2.271	0.603	-3.3	0.582
10289.75	10.102	95.973	0.442	2.273	0.604	-3.395	0.579
10290	10.106	96.273	0.44	2.274	0.604	-3.569	0.576
10290.25	10.109	97.013	0.437	2.276	0.604	-3.808	0.575
10290.5	10.111	98.008	0.433	2.278	0.603	-4.096	0.576
10290.75	10.112	98.833	0.427	2.28	0.602	-4.403	0.579
10291	10.113	99.119	0.422	2.282	0.601	-4.683	0.584
10291.25	10.115	98.771	0.417	2.284	0.601	-4.9	0.588
10291.5	10.118	97.862	0.414	2.285	0.6	-5.032	0.59
10291.75	10.124	96.735	0.414	2.286	0.6	-5.077	0.589
10292	10.134	95.895	0.415	2.286	0.599	-5.049	0.586
10292.25	10.146	95.569	0.415	2.286	0.599	-4.962	0.581
10292.5	10.16	95.615	0.413	2.286	0.6	-4.823	0.578
10292.75	10.175	95.815	0.409	2.286	0.6	-4.645	0.577
10293	10.188	96.072	0.405	2.285	0.6	-4.447	0.578
10293.25	10.199	96.319	0.402	2.285	0.601	-4.262	0.581
10293.5	10.207	96.534	0.399	2.284	0.601	-4.127	0.585
10293.75	10.214	96.638	0.399	2.284	0.602	-4.061	0.59
10294	10.219	96.513	0.398	2.284	0.602	-4.052	0.595
10294.25	10.223	96.252	0.398	2.285	0.604	-4.071	0.598
10294.5	10.228	96.01	0.397	2.285	0.605	-4.07	0.601
10294.75	10.232	95.709	0.397	2.286	0.607	-3.993	0.603
10295	10.235	95.228	0.398	2.287	0.609	-3.796	0.604
10295.25	10.238	94.608	0.399	2.288	0.61	-3.472	0.605
10295.5	10.239	94.05	0.4	2.288	0.611	-3.05	0.606
10295.75	10.239	93.828	0.4	2.289	0.613	-2.594	0.607
10296	10.237	94.202	0.4	2.29	0.614	-2.184	0.608
10296.25	10.234	95.205	0.399	2.29	0.616	-1.903	0.609
10296.5	10.229	96.46	0.399	2.291	0.618	-1.825	0.609
10296.75	10.224	97.509	0.398	2.292	0.621	-1.987	0.607
10297	10.219	97.962	0.397	2.293	0.624	-2.356	0.606
10297.25	10.215	97.64	0.397	2.294	0.627	-2.818	0.605
10297.5	10.212	96.818	0.396	2.296	0.63	-3.22	0.607
10297.75	10.21	96.065	0.396	2.298	0.633	-3.417	0.612
10298	10.209	95.779	0.397	2.301	0.636	-3.327	0.62
10298.25	10.207	96.106	0.399	2.305	0.638	-2.963	0.629
10298.5	10.207	96.898	0.403	2.308	0.64	-2.427	0.635
10298.75	10.207	97.754	0.406	2.314	0.642	-1.863	0.635
10299	10.208	98.211	0.41	2.319	0.645	-1.407	0.63
10299.25	10.209	97.96	0.413	2.324	0.648	-1.144	0.62
10299.5	10.211	97.025	0.415	2.329	0.651	-1.087	0.611
10299.75	10.215	95.648	0.416	2.333	0.654	-1.192	0.606
10300	10.222	94.338	0.416	2.337	0.657	-1.379	0.607
10300.25	10.233	93.543	0.416	2.337	0.659	-1.553	0.617
10300.5	10.248	93.394	0.416	2.338	0.661	-1.636	0.631
10300.75	10.265	93.802	0.414	2.335	0.663	-1.593	0.647
10301	10.282	94.54	0.414	2.332	0.664	-1.444	0.659
10301.25	10.294	95.404	0.416	2.327	0.665	-1.233	0.662
10301.5	10.301	96.382	0.42	2.321	0.667	-1.008	0.656
10301.75	10.304	97.449	0.426	2.315	0.668	-0.799	0.646
10302	10.306	98.556	0.432	2.309	0.668	-0.613	0.634
10302.25	10.309	99.385	0.436	2.305	0.667	-0.433	0.625
10302.5	10.314	99.571	0.439	2.3	0.665	-0.239	0.62
10302.75	10.32	99.005	0.44	2.297	0.662	-0.02	0.618
10303	10.327	97.855	0.44	2.295	0.659	0.214	0.619
10303.25	10.333	96.55	0.441	2.294	0.656	0.434	0.623
10303.5	10.338	95.518	0.442	2.293	0.653	0.604	0.629
10303.75	10.344	94.94	0.443	2.294	0.651	0.705	0.637
10304	10.352	94.72	0.441	2.294	0.65	0.75	0.645
10304.25	10.363	94.665	0.439	2.295	0.648	0.777	0.652
10304.5	10.376	94.753	0.437	2.295	0.647	0.828	0.656
10304.75	10.39	95.092	0.435	2.296	0.646	0.91	0.656
10305	10.404	95.764	0.433	2.296	0.646	0.984	0.655
10305.25	10.417	96.736	0.433	2.296	0.645	0.99	0.654
10305.5	10.428	97.687	0.433	2.297	0.644	0.902	0.653
10305.75	10.436	98.217	0.432	2.297	0.644	0.729	0.654
10306	10.442	98.156	0.43	2.297	0.644	0.489	0.656
10306.25	10.446	97.69	0.428	2.298	0.643	0.184	0.661
10306.5	10.448	97.145	0.427	2.298	0.643	-0.207	0.669
10306.75	10.448	96.872	0.427	2.299	0.642	-0.7	0.679
10307	10.448	96.946	0.427	2.3	0.64	-1.253	0.688
10307.25	10.45	97.179	0.429	2.302	0.639	-1.752	0.694
10307.5	10.453	97.385	0.432	2.303	0.638	-2.052	0.695
10307.75	10.457	97.522	0.434	2.305	0.637	-2.049	0.692
10308	10.458	97.58	0.437	2.307	0.636	-1.738	0.688
10308.25	10.457	97.571	0.439	2.309	0.637	-1.212	0.684
10308.5	10.453	97.639	0.44	2.312	0.639	-0.607	0.681
10308.75	10.448	97.91	0.441	2.313	0.643	-0.029	0.68
10309	10.441	98.348	0.441	2.315	0.646	0.473	0.68
10309.25	10.434	98.807	0.442	2.316	0.649	0.895	0.68
10309.5	10.425	99.053	0.443	2.317	0.651	1.252	0.68
10309.75	10.414	98.913	0.444	2.317	0.652	1.55	0.682
10310	10.403	98.463	0.445	2.317	0.652	1.803	0.684
10310.25	10.392	97.87	0.447	2.316	0.652	2.037	0.687
10310.5	10.381	97.268	0.448	2.315	0.652	2.294	0.689
10310.75	10.37	96.874	0.449	2.314	0.652	2.607	0.691
10311	10.361	96.972	0.449	2.312	0.651	2.971	0.691
10311.25	10.352	97.66	0.448	2.31	0.651	3.341	0.69
10311.5	10.346	98.888	0.447	2.309	0.65	3.652	0.688
10311.75	10.341	100.575	0.447	2.307	0.65	3.844	0.686
10312	10.34	102.497	0.446	2.306	0.65	3.9	0.685
10312.25	10.339	104.203	0.447	2.305	0.65	3.855	0.684
10312.5	10.34	105.095	0.447	2.304	0.65	3.778	0.684
10312.75	10.34	104.772	0.448	2.303	0.65	3.733	0.684
10313	10.34	103.32	0.45	2.302	0.65	3.758	0.683
10313.25	10.34	101.239	0.451	2.301	0.651	3.859	0.681
10313.5	10.34	99.166	0.452	2.3	0.652	4.005	0.678
10313.75	10.339	97.552	0.453	2.3	0.653	4.147	0.676
10314	10.339	96.68	0.453	2.299	0.654	4.234	0.675
10314.25	10.339	96.644	0.451	2.298	0.655	4.225	0.677
10314.5	10.34	97.238	0.448	2.297	0.655	4.104	0.682
10314.75	10.341	98.05	0.444	2.296	0.655	3.896	0.688
10315	10.342	98.787	0.441	2.295	0.656	3.658	0.695
10315.25	10.343	99.354	0.438	2.295	0.657	3.462	0.699
10315.5	10.344	99.754	0.436	2.294	0.659	3.359	0.7
10315.75	10.344	100.037	0.435	2.294	0.661	3.357	0.699
10316	10.346	100.381	0.435	2.294	0.664	3.42	0.696
10316.25	10.35	100.849	0.436	2.294	0.667	3.499	0.694
10316.5	10.356	101.318	0.437	2.294	0.67	3.57	0.692
10316.75	10.364	101.657	0.439	2.294	0.672	3.639	0.691
10317	10.371	101.848	0.44	2.294	0.673	3.739	0.69
10317.25	10.378	102.052	0.442	2.294	0.674	3.896	0.688
10317.5	10.383	102.501	0.443	2.293	0.676	4.104	0.687
10317.75	10.386	103.233	0.444	2.292	0.679	4.317	0.686
10318	10.387	104.104	0.445	2.291	0.682	4.47	0.685
10318.25	10.387	104.877	0.444	2.29	0.685	4.516	0.686
10318.5	10.386	105.3	0.443	2.289	0.687	4.447	0.689
10318.75	10.384	105.233	0.44	2.289	0.688	4.294	0.694
10319	10.383	104.731	0.436	2.288	0.688	4.115	0.7
10319.25	10.382	104.077	0.433	2.289	0.688	3.97	0.706
10319.5	10.382	103.544	0.431	2.289	0.688	3.905	0.711
10319.75	10.383	103.237	0.432	2.29	0.688	3.937	0.714
10320	10.386	103.071	0.435	2.291	0.689	4.051	0.714
10320.25	10.392	102.953	0.437	2.293	0.689	4.214	0.712
10320.5	10.401	102.859	0.44	2.294	0.69	4.393	0.707
10320.75	10.411	102.879	0.442	2.295	0.69	4.573	0.702
10321	10.424	103.092	0.446	2.295	0.69	4.734	0.698
10321.25	10.438	103.623	0.449	2.295	0.689	4.858	0.694
10321.5	10.451	104.401	0.453	2.295	0.688	4.93	0.693
10321.75	10.465	105.07	0.455	2.294	0.686	4.957	0.695
10322	10.479	105.197	0.456	2.293	0.685	4.959	0.697
10322.25	10.492	104.644	0.456	2.292	0.683	4.966	0.702
10322.5	10.503	103.749	0.455	2.291	0.682	5.001	0.706
10322.75	10.511	103.063	0.455	2.29	0.68	5.076	0.709
10323	10.513	102.869	0.457	2.289	0.678	5.188	0.712
10323.25	10.51	103.075	0.458	2.289	0.676	5.319	0.713
10323.5	10.502	103.325	0.459	2.289	0.674	5.445	0.712
10323.75	10.491	103.346	0.46	2.29	0.672	5.548	0.711
10324	10.481	103.103	0.46	2.291	0.671	5.627	0.708
10324.25	10.472	102.723	0.459	2.293	0.67	5.687	0.706
10324.5	10.467	102.376	0.457	2.295	0.669	5.725	0.705
10324.75	10.465	102.182	0.455	2.298	0.668	5.74	0.706
10325	10.466	102.076	0.453	2.301	0.667	5.734	0.708
10325.25	10.469	101.886	0.452	2.303	0.666	5.712	0.711
10325.5	10.473	101.63	0.452	2.306	0.665	5.681	0.713
10325.75	10.477	101.547	0.452	2.308	0.664	5.643	0.715
10326	10.481	101.728	0.454	2.31	0.663	5.598	0.715
10326.25	10.485	102.084	0.454	2.311	0.662	5.551	0.714
10326.5	10.488	102.314	0.453	2.313	0.662	5.506	0.713
10326.75	10.492	102.164	0.451	2.313	0.662	5.467	0.712
10327	10.494	101.7	0.448	2.314	0.662	5.436	0.712
10327.25	10.496	101.32	0.445	2.313	0.663	5.414	0.712
10327.5	10.497	101.304	0.442	2.313	0.663	5.399	0.714
10327.75	10.497	101.685	0.439	2.312	0.664	5.389	0.718
10328	10.498	102.315	0.437	2.312	0.665	5.38	0.723
10328.25	10.498	102.996	0.435	2.31	0.665	5.376	0.729
10328.5	10.497	103.588	0.435	2.309	0.666	5.382	0.734
10328.75	10.496	104.17	0.434	2.309	0.667	5.399	0.738
10329	10.495	104.769	0.435	2.308	0.669	5.424	0.74
10329.25	10.495	105.221	0.436	2.308	0.671	5.455	0.741
10329.5	10.496	105.248	0.436	2.307	0.674	5.488	0.741
10329.75	10.498	104.671	0.437	2.308	0.676	5.511	0.74
10330	10.502	103.515	0.438	2.309	0.678	5.5	0.74
10330.25	10.507	102.107	0.439	2.31	0.681	5.439	0.74
10330.5	10.511	100.858	0.439	2.311	0.683	5.333	0.741
10330.75	10.514	99.98	0.44	2.312	0.684	5.214	0.742
10331	10.516	99.352	0.44	2.313	0.686	5.121	0.744
10331.25	10.517	98.711	0.44	2.314	0.687	5.086	0.746
10331.5	10.517	97.947	0.439	2.316	0.687	5.123	0.749
10331.75	10.517	97.195	0.437	2.316	0.688	5.219	0.752
10332	10.517	96.731	0.435	2.317	0.688	5.347	0.755
10332.25	10.516	96.737	0.433	2.318	0.688	5.475	0.758
10332.5	10.516	97.054	0.431	2.318	0.688	5.582	0.759
10332.75	10.515	97.427	0.429	2.318	0.688	5.643	0.759
10333	10.515	97.722	0.428	2.318	0.688	5.615	0.757
10333.25	10.514	97.898	0.427	2.317	0.688	5.46	0.756
10333.5	10.514	98.128	0.425	2.316	0.687	5.174	0.755
10333.75	10.514	98.634	0.423	2.314	0.686	4.803	0.757
10334	10.515	99.419	0.422	2.312	0.684	4.426	0.76
10334.25	10.516	100.284	0.421	2.31	0.682	4.129	0.764
10334.5	10.517	101.024	0.422	2.307	0.68	3.973	0.767
10334.75	10.518	101.558	0.423	2.305	0.677	3.971	0.767
10335	10.519	101.88	0.426	2.303	0.675	4.092	0.765
10335.25	10.519	101.957	0.429	2.301	0.673	4.276	0.759
10335.5	10.52	101.791	0.432	2.3	0.672	4.475	0.753
10335.75	10.521	101.385	0.434	2.299	0.671	4.659	0.746
10336	10.525	100.865	0.437	2.298	0.67	4.817	0.739
10336.25	10.531	100.456	0.439	2.298	0.669	4.937	0.733
10336.5	10.543	100.371	0.44	2.297	0.668	5.013	0.729
10336.75	10.559	100.689	0.441	2.297	0.668	5.045	0.726
10337	10.58	101.193	0.441	2.297	0.669	5.038	0.726
10337.25	10.604	101.456	0.439	2.297	0.671	4.99	0.727
10337.5	10.628	101.131	0.436	2.297	0.672	4.889	0.729
10337.75	10.645	100.26	0.432	2.297	0.674	4.699	0.732
10338	10.644	99.31	0.428	2.296	0.675	4.382	0.738
10338.25	10.616	98.7	0.423	2.296	0.675	3.933	0.746
10338.5	10.555	98.559	0.418	2.295	0.675	3.41	0.755
10338.75	10.467	98.859	0.413	2.294	0.675	2.922	0.764
10339	10.369	99.334	0.409	2.294	0.674	2.577	0.769
10339.25	10.277	99.716	0.407	2.293	0.674	2.428	0.769
10339.5	10.207	99.9	0.409	2.292	0.675	2.461	0.763
10339.75	10.162	99.878	0.412	2.291	0.676	2.602	0.755
10340	10.14	99.72	0.416	2.29	0.678	2.763	0.748
10340.25	10.132	99.42	0.42	2.289	0.679	2.886	0.744
10340.5	10.135	98.89	0.422	2.288	0.68	2.966	0.742
10340.75	10.151	98.229	0.422	2.286	0.68	3.029	0.742
10341	10.186	97.77	0.421	2.285	0.679	3.097	0.743
10341.25	10.241	97.824	0.418	2.284	0.678	3.176	0.744
10341.5	10.312	98.365	0.415	2.283	0.677	3.261	0.744
10341.75	10.39	99.032	0.413	2.283	0.676	3.34	0.745
10342	10.463	99.385	0.413	2.283	0.676	3.402	0.747
10342.25	10.522	99.148	0.414	2.283	0.676	3.438	0.749
10342.5	10.562	98.351	0.417	2.283	0.678	3.444	0.751
10342.75	10.585	97.189	0.42	2.284	0.681	3.424	0.753
10343	10.596	95.971	0.424	2.285	0.686	3.391	0.755
10343.25	10.599	95.056	0.426	2.286	0.69	3.357	0.757
10343.5	10.598	94.552	0.428	2.287	0.695	3.329	0.757
10343.75	10.594	94.339	0.43	2.287	0.699	3.304	0.758
10344	10.589	94.403	0.429	2.288	0.701	3.27	0.761
10344.25	10.583	94.838	0.428	2.287	0.703	3.223	0.765
10344.5	10.577	95.684	0.427	2.287	0.703	3.172	0.772
10344.75	10.571	96.702	0.428	2.285	0.702	3.141	0.779
10345	10.566	97.498	0.429	2.284	0.701	3.154	0.785
10345.25	10.563	97.819	0.433	2.282	0.7	3.224	0.786
10345.5	10.561	97.711	0.438	2.28	0.7	3.346	0.781
10345.75	10.561	97.403	0.444	2.277	0.699	3.493	0.77
10346	10.562	97.081	0.45	2.275	0.698	3.636	0.756
10346.25	10.564	96.917	0.455	2.273	0.698	3.747	0.741
10346.5	10.565	96.962	0.458	2.271	0.699	3.806	0.728
10346.75	10.566	97.057	0.46	2.269	0.704	3.792	0.718
10347	10.567	96.921	0.46	2.268	0.714	3.666	0.711
10347.25	10.568	96.532	0.459	2.267	0.733	3.339	0.707
10347.5	10.568	96.212	0.455	2.266	0.76	2.652	0.704
10347.75	10.569	96.336	0.451	2.266	0.799	1.41	0.703
10348	10.569	96.922	0.448	2.265	0.848	-0.519	0.703
10348.25	10.569	97.687	0.446	2.265	0.905	-3.107	0.704
10348.5	10.568	98.128	0.443	2.264	0.965	-6.126	0.707
10348.75	10.568	97.896	0.436	2.263	1.023	-9.199	0.715
10349	10.569	96.808	0.425	2.261	1.071	-11.933	0.731
10349.25	10.571	94.882	0.411	2.258	1.108	-14.068	0.757
10349.5	10.574	92.294	0.396	2.256	1.133	-15.592	0.798
10349.75	10.577	89.265	0.381	2.252	1.152	-16.737	0.856
10350	10.587	85.982	0.367	2.248	1.171	-17.84	0.93
10350.25	10.62	82.617	0.354	2.243	1.197	-19.178	1.016
10350.5	10.696	79.392	0.342	2.239	1.234	-20.86	1.106
10350.75	10.827	76.597	0.33	2.234	1.282	-22.825	1.187
10351	11.009	74.503	0.319	2.229	1.34	-24.911	1.252
10351.25	11.218	73.256	0.309	2.226	1.399	-26.93	1.301
10351.5	11.414	72.792	0.301	2.223	1.454	-28.736	1.337
10351.75	11.546	72.904	0.295	2.22	1.496	-30.256	1.366
10352	11.573	73.279	0.29	2.217	1.522	-31.475	1.39
10352.25	11.476	73.507	0.288	2.214	1.533	-32.398	1.41
10352.5	11.276	73.314	0.287	2.212	1.533	-33.029	1.421
10352.75	11.018	72.742	0.289	2.21	1.526	-33.36	1.42
10353	10.757	72.158	0.292	2.208	1.514	-33.373	1.404
10353.25	10.541	72.001	0.295	2.206	1.5	-33.049	1.373
10353.5	10.393	72.554	0.3	2.203	1.484	-32.38	1.33
10353.75	10.315	73.81	0.304	2.201	1.466	-31.388	1.281
10354	10.284	75.497	0.308	2.198	1.444	-30.145	1.234
10354.25	10.275	77.276	0.312	2.194	1.419	-28.77	1.195
10354.5	10.273	78.869	0.315	2.191	1.392	-27.422	1.172
10354.75	10.275	80.053	0.317	2.188	1.361	-26.282	1.168
10355	10.28	80.742	0.316	2.184	1.329	-25.495	1.183
10355.25	10.289	80.879	0.314	2.182	1.295	-25.089	1.214
10355.5	10.301	80.504	0.311	2.18	1.26	-24.899	1.251
10355.75	10.314	79.783	0.307	2.18	1.225	-24.603	1.278
10356	10.325	79.052	0.303	2.181	1.191	-23.886	1.281
10356.25	10.334	78.656	0.3	2.184	1.155	-22.614	1.252
10356.5	10.342	78.742	0.298	2.187	1.118	-20.903	1.198
10356.75	10.348	79.29	0.297	2.193	1.078	-19.048	1.137
10357	10.354	80.273	0.298	2.198	1.038	-17.377	1.083
10357.25	10.361	81.548	0.301	2.203	1.001	-16.101	1.046
10357.5	10.367	83.004	0.306	2.209	0.97	-15.244	1.03
10357.75	10.371	84.457	0.311	2.213	0.946	-14.689	1.031
10358	10.372	85.673	0.317	2.218	0.93	-14.301	1.044
10358.25	10.368	86.448	0.321	2.22	0.921	-14.011	1.062
10358.5	10.362	86.732	0.325	2.223	0.917	-13.813	1.079
10358.75	10.356	86.637	0.326	2.224	0.915	-13.7	1.089
10359	10.352	86.304	0.326	2.226	0.915	-13.631	1.092
10359.25	10.356	85.889	0.324	2.227	0.916	-13.564	1.088
10359.5	10.374	85.605	0.323	2.228	0.916	-13.475	1.074
10359.75	10.408	85.6	0.325	2.231	0.915	-13.349	1.053
10360	10.46	85.87	0.33	2.233	0.913	-13.17	1.027
10360.25	10.522	86.192	0.337	2.236	0.909	-12.923	1
10360.5	10.586	86.269	0.345	2.24	0.904	-12.587	0.978
10360.75	10.643	85.959	0.352	2.244	0.897	-12.145	0.963
10361	10.684	85.307	0.358	2.248	0.888	-11.604	0.955
10361.25	10.708	84.556	0.362	2.252	0.879	-10.992	0.952
10361.5	10.715	84.017	0.364	2.257	0.87	-10.362	0.948
10361.75	10.71	84.015	0.365	2.261	0.86	-9.777	0.941
10362	10.698	84.664	0.365	2.265	0.85	-9.273	0.932
10362.25	10.682	85.786	0.365	2.269	0.84	-8.838	0.923
10362.5	10.667	87.103	0.363	2.272	0.831	-8.423	0.917
10362.75	10.657	88.514	0.361	2.276	0.822	-7.966	0.916
10363	10.652	89.981	0.358	2.279	0.815	-7.427	0.92
10363.25	10.651	91.394	0.357	2.282	0.81	-6.815	0.925
10363.5	10.652	92.63	0.358	2.285	0.807	-6.186	0.926
10363.75	10.655	93.547	0.36	2.287	0.807	-5.606	0.92
10364	10.659	94.041	0.363	2.289	0.807	-5.12	0.907
10364.25	10.666	94.032	0.366	2.291	0.807	-4.74	0.892
10364.5	10.674	93.596	0.368	2.292	0.807	-4.462	0.879
10364.75	10.68	92.998	0.368	2.293	0.805	-4.289	0.87
10365	10.684	92.477	0.366	2.294	0.803	-4.242	0.869
10365.25	10.688	92.066	0.363	2.294	0.801	-4.322	0.874
10365.5	10.692	91.661	0.36	2.294	0.799	-4.479	0.882
10365.75	10.699	91.105	0.358	2.294	0.798	-4.627	0.887
10366	10.708	90.306	0.357	2.294	0.797	-4.696	0.887
10366.25	10.718	89.28	0.358	2.294	0.796	-4.669	0.88
10366.5	10.725	88.294	0.359	2.294	0.796	-4.585	0.868
10366.75	10.73	87.628	0.359	2.294	0.795	-4.492	0.855
10367	10.732	87.464	0.359	2.294	0.794	-4.396	0.843
10367.25	10.735	87.811	0.358	2.294	0.793	-4.249	0.836
10367.5	10.74	88.493	0.358	2.295	0.792	-3.968	0.832
10367.75	10.747	89.349	0.359	2.295	0.792	-3.486	0.831
10368	10.755	90.216	0.361	2.295	0.792	-2.804	0.832
10368.25	10.762	90.91	0.363	2.295	0.793	-2.005	0.833
10368.5	10.767	91.327	0.365	2.295	0.794	-1.207	0.833
10368.75	10.77	91.475	0.367	2.296	0.796	-0.518	0.834
10369	10.77	91.378	0.368	2.296	0.797	-0.003	0.835
10369.25	10.769	91.098	0.369	2.297	0.798	0.327	0.838
10369.5	10.769	90.779	0.37	2.297	0.799	0.506	0.844
10369.75	10.768	90.637	0.372	2.298	0.799	0.594	0.851
10370	10.769	90.793	0.375	2.298	0.797	0.667	0.859
10370.25	10.769	91.307	0.377	2.299	0.796	0.791	0.867
10370.5	10.769	92.089	0.378	2.3	0.794	1.004	0.874
10370.75	10.769	93.033	0.377	2.301	0.792	1.304	0.877
10371	10.768	93.924	0.376	2.301	0.79	1.652	0.878
10371.25	10.767	94.528	0.375	2.302	0.788	1.994	0.876
10371.5	10.766	94.757	0.376	2.302	0.787	2.288	0.873
10371.75	10.766	94.768	0.378	2.302	0.785	2.524	0.867
10372	10.768	94.727	0.381	2.303	0.784	2.71	0.861
10372.25	10.771	94.783	0.384	2.302	0.783	2.868	0.852
10372.5	10.775	95.045	0.385	2.302	0.782	3.015	0.844
10372.75	10.781	95.584	0.385	2.3	0.781	3.149	0.835
10373	10.787	96.354	0.383	2.299	0.781	3.238	0.828
10373.25	10.79	97.256	0.382	2.297	0.78	3.247	0.821
10373.5	10.787	98.07	0.382	2.296	0.78	3.153	0.816
10373.75	10.774	98.556	0.384	2.294	0.779	2.943	0.814
10374	10.751	98.562	0.387	2.293	0.777	2.593	0.816
10374.25	10.72	98.015	0.39	2.292	0.774	2.094	0.823
10374.5	10.686	96.934	0.392	2.291	0.77	1.484	0.834
10374.75	10.655	95.521	0.392	2.292	0.765	0.86	0.847
10375	10.631	94.14	0.391	2.293	0.759	0.362	0.859
10375.25	10.617	93.086	0.39	2.295	0.753	0.12	0.864
10375.5	10.608	92.545	0.39	2.297	0.748	0.189	0.86
10375.75	10.603	92.61	0.391	2.299	0.745	0.53	0.85
10376	10.601	93.158	0.394	2.302	0.742	1.026	0.833
10376.25	10.608	93.957	0.399	2.305	0.741	1.542	0.815
10376.5	10.628	94.84	0.403	2.307	0.74	1.983	0.797
10376.75	10.664	95.72	0.405	2.31	0.739	2.309	0.78
10377	10.717	96.523	0.404	2.312	0.739	2.511	0.767
10377.25	10.78	97.262	0.403	2.314	0.738	2.584	0.757
10377.5	10.846	97.943	0.401	2.316	0.737	2.531	0.754
10377.75	10.907	98.485	0.4	2.318	0.735	2.373	0.757
10378	10.959	98.684	0.399	2.319	0.733	2.157	0.768
10378.25	10.998	98.345	0.397	2.321	0.731	1.963	0.783
10378.5	11.025	97.385	0.394	2.323	0.729	1.872	0.798
10378.75	11.041	95.954	0.392	2.325	0.727	1.929	0.81
10379	11.046	94.399	0.392	2.327	0.725	2.133	0.815
10379.25	11.044	93.161	0.392	2.328	0.724	2.441	0.812
10379.5	11.039	92.609	0.394	2.33	0.724	2.789	0.803
10379.75	11.033	93.014	0.395	2.33	0.723	3.122	0.794
10380	11.028	94.308	0.395	2.331	0.723	3.406	0.786
10380.25	11.025	96.146	0.394	2.33	0.721	3.627	0.78
10380.5	11.027	98.028	0.393	2.329	0.719	3.789	0.776
10380.75	11.038	99.525	0.393	2.328	0.716	3.903	0.772
10381	11.06	100.355	0.395	2.327	0.714	3.974	0.768
10381.25	11.093	100.456	0.399	2.326	0.711	4.009	0.764
10381.5	11.131	99.94	0.404	2.325	0.709	4.02	0.762
10381.75	11.167	98.999	0.408	2.324	0.707	4.026	0.761
10382	11.193	97.938	0.411	2.324	0.705	4.044	0.762
10382.25	11.204	97.076	0.412	2.324	0.704	4.091	0.765
10382.5	11.204	96.513	0.411	2.324	0.703	4.169	0.769
10382.75	11.2	96.216	0.41	2.324	0.703	4.278	0.773
10383	11.203	96.009	0.409	2.325	0.704	4.412	0.777
10383.25	11.218	95.749	0.41	2.325	0.705	4.565	0.778
10383.5	11.24	95.447	0.411	2.325	0.707	4.712	0.779
10383.75	11.257	95.331	0.412	2.325	0.709	4.815	0.778
10384	11.248	95.587	0.414	2.325	0.711	4.834	0.778
10384.25	11.203	96.193	0.414	2.325	0.713	4.746	0.779
10384.5	11.121	97.002	0.412	2.325	0.715	4.551	0.781
10384.75	11.016	97.64	0.409	2.325	0.717	4.268	0.783
10385	10.908	97.673	0.405	2.325	0.719	3.921	0.783
10385.25	10.82	97.082	0.401	2.325	0.721	3.547	0.783
10385.5	10.76	96.25	0.398	2.325	0.723	3.198	0.781
10385.75	10.731	95.7	0.397	2.324	0.723	2.941	0.781
10386	10.721	95.871	0.397	2.324	0.724	2.837	0.781
10386.25	10.723	96.857	0.397	2.323	0.724	2.918	0.783
10386.5	10.725	98.314	0.397	2.322	0.725	3.168	0.784
10386.75	10.719	99.73	0.397	2.32	0.727	3.49	0.782
10387	10.697	100.737	0.396	2.319	0.729	3.724	0.777
10387.25	10.66	101.077	0.396	2.318	0.732	3.712	0.771
10387.5	10.611	100.653	0.396	2.316	0.735	3.36	0.768
10387.75	10.557	99.621	0.396	2.315	0.737	2.655	0.768
10388	10.507	98.188	0.396	2.314	0.738	1.657	0.775
10388.25	10.466	96.614	0.396	2.313	0.738	0.504	0.788
10388.5	10.437	95.278	0.395	2.313	0.737	-0.596	0.806
10388.75	10.418	94.449	0.394	2.312	0.736	-1.441	0.824
10389	10.408	94.149	0.393	2.312	0.734	-1.9	0.838
10389.25	10.408	94.278	0.394	2.312	0.733	-1.944	0.846
10389.5	10.422	94.647	0.395	2.312	0.733	-1.639	0.846
10389.75	10.449	95.035	0.397	2.311	0.733	-1.116	0.838
10390	10.485	95.333	0.4	2.31	0.733	-0.533	0.825
10390.25	10.524	95.482	0.402	2.309	0.734	-0.038	0.81
10390.5	10.563	95.363	0.404	2.308	0.733	0.275	0.794
10390.75	10.597	94.911	0.405	2.306	0.732	0.383	0.782
10391	10.626	94.291	0.405	2.304	0.731	0.32	0.774
10391.25	10.651	93.841	0.405	2.302	0.73	0.159	0.772
10391.5	10.672	93.932	0.404	2.299	0.728	-0.001	0.776
10391.75	10.689	94.709	0.403	2.297	0.727	-0.07	0.784
10392	10.701	95.988	0.403	2.295	0.727	-0.014	0.793
10392.25	10.707	97.393	0.402	2.292	0.727	0.138	0.802
10392.5	10.708	98.631	0.402	2.289	0.728	0.327	0.807
10392.75	10.705	99.549	0.404	2.287	0.728	0.502	0.807
10393	10.702	100.016	0.409	2.284	0.729	0.633	0.801
10393.25	10.701	99.943	0.416	2.281	0.729	0.733	0.791
10393.5	10.706	99.232	0.423	2.279	0.729	0.833	0.779
10393.75	10.717	97.879	0.426	2.277	0.729	0.953	0.768
10394	10.734	96.206	0.424	2.275	0.728	1.089	0.76
10394.25	10.754	94.796	0.418	2.275	0.726	1.223	0.756
10394.5	10.773	94.082	0.415	2.274	0.724	1.328	0.756
10394.75	10.788	94.149	0.414	2.275	0.722	1.381	0.758
10395	10.796	94.739	0.415	2.276	0.721	1.372	0.761
10395.25	10.8	95.49	0.414	2.279	0.72	1.308	0.763
10395.5	10.801	96.148	0.409	2.281	0.719	1.205	0.763
10395.75	10.802	96.664	0.401	2.285	0.719	1.079	0.763
10396	10.803	97.029	0.396	2.288	0.719	0.935	0.763
10396.25	10.805	97.268	0.406	2.292	0.72	0.775	0.764
10396.5	10.806	97.483	0.421	2.295	0.72	0.613	0.766
10396.75	10.807	97.757	0.434	2.298	0.72	0.476	0.768
10397	10.807	98.102	0.434	2.301	0.72	0.39	0.771
10397.25	10.807	98.395	0.431	2.304	0.719	0.362	0.771
10397.5	10.808	98.397	0.428	2.306	0.719	0.379	0.769
10397.75	10.808	97.905	0.429	2.307	0.718	0.411	0.765
10398	10.809	96.89	0.433	2.308	0.717	0.431	0.759
10398.25	10.81	95.588	0.437	2.308	0.716	0.419	0.754
10398.5	10.809	94.375	0.44	2.308	0.715	0.372	0.75
10398.75	10.805	93.586	0.441	2.307	0.714	0.302	0.747
10399	10.799	93.304	0.439	2.306	0.713	0.232	0.747
10399.25	10.79	93.418	0.437	2.304	0.711	0.185	0.749
10399.5	10.781	93.823	0.435	2.302	0.709	0.185	0.751
10399.75	10.776	94.373	0.437	2.3	0.708	0.248	0.752
10400	10.78	94.911	0.439	2.297	0.706	0.377	0.752
10400.25	10.798	95.31	0.441	2.295	0.705	0.551	0.75
10400.5	10.833	95.527	0.443	2.292	0.703	0.735	0.747
10400.75	10.881	95.555	0.445	2.29	0.701	0.894	0.743
10401	10.934	95.474	0.444	2.288	0.699	1.01	0.739
10401.25	10.985	95.408	0.442	2.287	0.697	1.082	0.736
10401.5	11.026	95.493	0.439	2.286	0.695	1.115	0.734
10401.75	11.055	95.795	0.435	2.287	0.692	1.118	0.731
10402	11.073	96.265	0.431	2.287	0.689	1.099	0.728
10402.25	11.081	96.654	0.429	2.288	0.687	1.08	0.725
10402.5	11.085	96.795	0.429	2.289	0.684	1.082	0.722
10402.75	11.094	96.613	0.432	2.291	0.682	1.124	0.72
10403	11.115	96.206	0.436	2.293	0.681	1.211	0.718
10403.25	11.156	95.776	0.439	2.295	0.679	1.33	0.717
10403.5	11.215	95.64	0.442	2.297	0.677	1.455	0.715
10403.75	11.286	95.933	0.443	2.299	0.676	1.56	0.714
10404	11.356	96.617	0.443	2.3	0.674	1.63	0.713
10404.25	11.413	97.483	0.445	2.302	0.673	1.669	0.713
10404.5	11.449	98.284	0.447	2.304	0.672	1.694	0.714
10404.75	11.46	98.847	0.451	2.306	0.671	1.716	0.715
10405	11.442	99.129	0.455	2.307	0.67	1.733	0.717
10405.25	11.392	99.016	0.457	2.309	0.67	1.733	0.719
10405.5	11.306	98.474	0.457	2.311	0.67	1.701	0.72
10405.75	11.185	97.447	0.456	2.312	0.67	1.626	0.721
10406	11.039	95.991	0.453	2.314	0.671	1.514	0.721
10406.25	10.886	94.538	0.45	2.315	0.671	1.387	0.722
10406.5	10.746	93.668	0.448	2.317	0.672	1.273	0.722
10406.75	10.633	93.708	0.447	2.317	0.673	1.194	0.723
10407	10.555	94.678	0.447	2.317	0.674	1.15	0.725
10407.25	10.507	96.245	0.447	2.317	0.675	1.127	0.727
10407.5	10.482	97.813	0.447	2.316	0.676	1.11	0.729
10407.75	10.472	98.848	0.447	2.315	0.678	1.095	0.73
10408	10.468	99.133	0.446	2.313	0.679	1.093	0.731
10408.25	10.467	98.886	0.445	2.311	0.681	1.118	0.73
10408.5	10.467	98.665	0.444	2.309	0.682	1.182	0.726
10408.75	10.467	98.997	0.444	2.307	0.683	1.277	0.718
10409	10.467	99.89	0.443	2.306	0.684	1.379	0.709
10409.25	10.468	100.99	0.442	2.305	0.684	1.458	0.701
10409.5	10.468	101.929	0.44	2.303	0.683	1.49	0.694
10409.75	10.469	102.483	0.439	2.303	0.682	1.471	0.691
10410	10.471	102.733	0.438	2.302	0.682	1.421	0.691
10410.25	10.469	102.984	0.437	2.302	0.682	1.376	0.693
10410.5	10.461	103.439	0.436	2.302	0.683	1.366	0.695
10410.75	10.443	104.087	0.436	2.302	0.685	1.409	0.694
10411	10.415	104.625	0.436	2.303	0.689	1.492	0.691
10411.25	10.381	104.69	0.435	2.303	0.692	1.585	0.686
10411.5	10.348	104.091	0.434	2.303	0.695	1.659	0.683
10411.75	10.321	102.878	0.433	2.303	0.698	1.691	0.681
10412	10.304	101.234	0.431	2.303	0.699	1.67	0.681
10412.25	10.296	99.468	0.428	2.303	0.7	1.598	0.683
10412.5	10.294	97.946	0.425	2.302	0.701	1.492	0.687
10412.75	10.294	96.907	0.422	2.302	0.702	1.37	0.692
10413	10.294	96.454	0.419	2.301	0.703	1.249	0.697
10413.25	10.296	96.548	0.418	2.299	0.703	1.138	0.703
10413.5	10.302	97.09	0.417	2.298	0.704	1.045	0.707
10413.75	10.315	97.915	0.418	2.297	0.705	0.975	0.709
10414	10.333	98.774	0.418	2.296	0.705	0.932	0.708
10414.25	10.353	99.443	0.419	2.295	0.706	0.928	0.704
10414.5	10.371	99.83	0.419	2.294	0.706	0.975	0.699
10414.75	10.384	99.866	0.419	2.295	0.705	1.076	0.694
10415	10.389	99.436	0.419	2.295	0.704	1.205	0.69
10415.25	10.387	98.474	0.421	2.296	0.701	1.315	0.688
10415.5	10.381	97.191	0.423	2.298	0.697	1.368	0.687
10415.75	10.374	95.947	0.425	2.3	0.694	1.349	0.687
10416	10.368	95.194	0.425	2.303	0.691	1.266	0.689
10416.25	10.363	95.266	0.424	2.306	0.69	1.138	0.692
10416.5	10.36	96.275	0.421	2.309	0.689	0.992	0.697
10416.75	10.362	98.088	0.417	2.312	0.689	0.846	0.704
10417	10.37	100.245	0.412	2.314	0.69	0.703	0.712
10417.25	10.385	102.118	0.407	2.316	0.691	0.547	0.72
10417.5	10.404	103.068	0.404	2.318	0.692	0.349	0.728
10417.75	10.426	102.814	0.402	2.317	0.692	0.094	0.735
10418	10.446	101.486	0.402	2.317	0.693	-0.209	0.741
10418.25	10.461	99.527	0.403	2.315	0.693	-0.522	0.747
10418.5	10.471	97.576	0.406	2.313	0.693	-0.785	0.749
10418.75	10.475	96.256	0.409	2.311	0.692	-0.935	0.748
10419	10.476	95.845	0.412	2.308	0.691	-0.94	0.743
10419.25	10.475	96.102	0.416	2.305	0.689	-0.825	0.735
10419.5	10.473	96.485	0.419	2.303	0.686	-0.65	0.729
10419.75	10.47	96.641	0.424	2.302	0.683	-0.496	0.726
10420	10.466	96.494	0.429	2.301	0.679	-0.451	0.728
10420.25	10.46	96.25	0.433	2.303	0.675	-0.557	0.737
10420.5	10.455	96.153	0.435	2.304	0.672	-0.776	0.748
10420.75	10.452	96.243	0.434	2.308	0.668	-1	0.759
10421	10.451	96.422	0.43	2.311	0.665	-1.089	0.764
10421.25	10.453	96.509	0.425	2.315	0.662	-0.935	0.761
10421.5	10.457	96.381	0.419	2.319	0.66	-0.516	0.75
10421.75	10.462	96.136	0.416	2.323	0.659	0.078	0.737
10422	10.47	95.975	0.415	2.327	0.658	0.677	0.723
10422.25	10.478	95.904	0.415	2.33	0.658	1.108	0.714
10422.5	10.485	95.725	0.416	2.332	0.657	1.267	0.709
10422.75	10.489	95.344	0.417	2.334	0.656	1.153	0.709
10423	10.49	94.851	0.415	2.335	0.654	0.827	0.714
10423.25	10.485	94.512	0.412	2.335	0.651	0.369	0.721
10423.5	10.475	94.494	0.407	2.335	0.648	-0.122	0.729
10423.75	10.464	94.733	0.403	2.335	0.645	-0.541	0.737
10424	10.452	95.044	0.401	2.334	0.644	-0.798	0.742
10424.25	10.444	95.244	0.403	2.332	0.643	-0.858	0.742
10424.5	10.441	95.226	0.406	2.331	0.644	-0.752	0.74
10424.75	10.448	95.034	0.411	2.329	0.646	-0.56	0.737
10425	10.469	94.829	0.414	2.327	0.647	-0.353	0.735
10425.25	10.504	94.725	0.416	2.325	0.649	-0.165	0.735
10425.5	10.551	94.718	0.414	2.322	0.65	0.023	0.738
10425.75	10.602	94.737	0.411	2.321	0.652	0.254	0.74
10426	10.652	94.804	0.407	2.319	0.654	0.552	0.739
10426.25	10.694	94.991	0.404	2.318	0.658	0.903	0.735
10426.5	10.724	95.333	0.403	2.317	0.662	1.263	0.729
10426.75	10.74	95.661	0.404	2.317	0.666	1.592	0.722
10427	10.743	95.919	0.407	2.317	0.67	1.871	0.717
10427.25	10.733	96.207	0.411	2.318	0.673	2.114	0.715
10427.5	10.716	96.721	0.415	2.318	0.676	2.343	0.717
10427.75	10.694	97.621	0.418	2.319	0.678	2.555	0.722
10428	10.672	98.94	0.421	2.32	0.68	2.741	0.729
10428.25	10.652	100.412	0.422	2.321	0.682	2.897	0.737
10428.5	10.636	101.7	0.423	2.323	0.685	3.025	0.744
10428.75	10.626	102.376	0.424	2.324	0.688	3.127	0.75
10429	10.621	102.117	0.425	2.326	0.691	3.198	0.754
10429.25	10.624	100.941	0.426	2.327	0.695	3.231	0.756
10429.5	10.637	99.298	0.425	2.329	0.698	3.229	0.756
10429.75	10.663	97.716	0.425	2.331	0.701	3.205	0.754
10430	10.699	96.604	0.425	2.333	0.703	3.178	0.754
10430.25	10.742	96.197	0.425	2.334	0.705	3.165	0.754
10430.5	10.785	96.488	0.425	2.335	0.706	3.182	0.755
10430.75	10.824	97.28	0.425	2.336	0.707	3.235	0.757
10431	10.853	98.418	0.426	2.337	0.708	3.315	0.759
10431.25	10.87	99.689	0.427	2.337	0.71	3.411	0.759
10431.5	10.876	100.759	0.428	2.338	0.712	3.51	0.757
10431.75	10.873	101.342	0.43	2.337	0.715	3.598	0.754
10432	10.862	101.335	0.432	2.337	0.718	3.652	0.749
10432.25	10.841	100.842	0.435	2.337	0.721	3.62	0.744
10432.5	10.809	100.109	0.437	2.337	0.723	3.452	0.742
10432.75	10.764	99.451	0.438	2.336	0.725	3.153	0.744
10433	10.711	99.117	0.438	2.336	0.725	2.801	0.752
10433.25	10.655	99.15	0.436	2.337	0.726	2.516	0.765
10433.5	10.601	99.374	0.434	2.337	0.727	2.4	0.782
10433.75	10.554	99.614	0.433	2.338	0.73	2.483	0.797
10434	10.517	99.922	0.432	2.338	0.733	2.707	0.807
10434.25	10.488	100.453	0.432	2.34	0.735	2.962	0.808
10434.5	10.466	101.182	0.431	2.341	0.737	3.15	0.803
10434.75	10.449	101.835	0.431	2.342	0.738	3.236	0.795
10435	10.439	102.169	0.431	2.343	0.736	3.251	0.789
10435.25	10.434	102.187	0.431	2.345	0.733	3.251	0.787
10435.5	10.431	101.954	0.431	2.346	0.73	3.259	0.787
10435.75	10.429	101.611	0.432	2.346	0.727	3.253	0.787
10436	10.428	101.331	0.433	2.347	0.725	3.205	0.784
10436.25	10.426	101.25	0.432	2.346	0.724	3.095	0.78
10436.5	10.426	101.419	0.431	2.346	0.724	2.92	0.773
10436.75	10.426	101.782	0.429	2.345	0.723	2.692	0.766
10437	10.426	102.336	0.427	2.344	0.722	2.426	0.76
10437.25	10.427	102.993	0.427	2.342	0.72	2.143	0.757
10437.5	10.429	103.536	0.429	2.341	0.718	1.866	0.755
10437.75	10.433	103.708	0.434	2.339	0.716	1.621	0.754
10438	10.439	103.342	0.44	2.336	0.714	1.428	0.753
10438.25	10.447	102.614	0.444	2.334	0.712	1.305	0.753
10438.5	10.456	101.983	0.446	2.332	0.711	1.255	0.751
10438.75	10.464	101.77	0.448	2.33	0.709	1.265	0.749
10439	10.471	102.111	0.449	2.328	0.708	1.309	0.747
10439.25	10.474	102.8	0.449	2.327	0.707	1.358	0.745
10439.5	10.473	103.436	0.45	2.325	0.706	1.394	0.743
10439.75	10.468	103.606	0.45	2.325	0.705	1.414	0.742
10440	10.462	103.241	0.451	2.324	0.705	1.422	0.741
10440.25	10.454	102.619	0.453	2.324	0.705	1.429	0.741
10440.5	10.447	102.018	0.453	2.324	0.705	1.444	0.74
10440.75	10.442	101.613	0.453	2.325	0.706	1.474	0.74
10441	10.439	101.438	0.452	2.326	0.706	1.517	0.739
10441.25	10.439	101.363	0.449	2.327	0.707	1.569	0.74
10441.5	10.444	101.218	0.445	2.328	0.708	1.623	0.742
10441.75	10.455	100.944	0.441	2.329	0.708	1.678	0.744
10442	10.474	100.608	0.438	2.33	0.709	1.736	0.747
10442.25	10.501	100.261	0.438	2.33	0.71	1.793	0.75
10442.5	10.533	99.872	0.44	2.33	0.71	1.847	0.752
10442.75	10.566	99.435	0.442	2.329	0.71	1.891	0.753
10443	10.596	98.961	0.442	2.328	0.711	1.923	0.752
10443.25	10.62	98.65	0.441	2.327	0.711	1.939	0.751
10443.5	10.636	98.681	0.438	2.326	0.71	1.941	0.748
10443.75	10.647	99.006	0.437	2.324	0.71	1.931	0.745
10444	10.652	99.517	0.436	2.323	0.708	1.914	0.741
10444.25	10.65	100.084	0.437	2.322	0.707	1.896	0.737
10444.5	10.642	100.592	0.439	2.32	0.705	1.884	0.733
10444.75	10.626	100.897	0.44	2.32	0.702	1.884	0.73
10445	10.606	100.925	0.439	2.319	0.7	1.903	0.726
10445.25	10.584	100.666	0.439	2.318	0.698	1.943	0.723
10445.5	10.564	100.04	0.439	2.317	0.696	1.994	0.721
10445.75	10.549	99.097	0.439	2.316	0.695	2.02	0.72
10446	10.541	97.945	0.44	2.315	0.695	1.957	0.722
10446.25	10.537	96.605	0.439	2.313	0.695	1.745	0.728
10446.5	10.535	95.175	0.438	2.312	0.695	1.356	0.738
10446.75	10.534	93.832	0.436	2.311	0.697	0.823	0.752
10447	10.532	92.708	0.434	2.31	0.698	0.246	0.766
10447.25	10.527	91.974	0.433	2.309	0.7	-0.244	0.778
10447.5	10.518	91.733	0.433	2.308	0.702	-0.533	0.784
10447.75	10.502	91.98	0.434	2.307	0.705	-0.568	0.784
10448	10.481	92.522	0.435	2.306	0.708	-0.373	0.78
10448.25	10.456	93.198	0.437	2.306	0.71	-0.026	0.775
10448.5	10.433	93.862	0.44	2.305	0.713	0.379	0.77
10448.75	10.413	94.504	0.443	2.305	0.715	0.768	0.768
10449	10.4	95.204	0.447	2.305	0.717	1.104	0.769
10449.25	10.392	95.946	0.45	2.306	0.718	1.375	0.771
10449.5	10.389	96.418	0.453	2.306	0.719	1.591	0.773
10449.75	10.39	96.496	0.454	2.308	0.719	1.761	0.774
10450	10.39	96.461	0.452	2.31	0.72	1.895	0.772
10450.25	10.386	96.728	0.45	2.313	0.72	2.002	0.768
10450.5	10.377	97.521	0.447	2.316	0.72	2.092	0.763
10450.75	10.36	98.745	0.444	2.318	0.72	2.164	0.757
10451	10.337	99.992	0.443	2.321	0.72	2.214	0.752
10451.25	10.312	100.824	0.442	2.323	0.719	2.24	0.75
10451.5	10.289	101.051	0.441	2.325	0.718	2.243	0.75
10451.75	10.272	100.834	0.44	2.325	0.717	2.232	0.751
10452	10.261	100.561	0.44	2.325	0.715	2.221	0.752
10452.25	10.253	100.615	0.441	2.324	0.713	2.229	0.751
10452.5	10.247	101.026	0.443	2.323	0.712	2.265	0.749
10452.75	10.24	101.518	0.445	2.321	0.711	2.326	0.744
10453	10.233	101.789	0.446	2.319	0.711	2.393	0.739
10453.25	10.227	101.665	0.446	2.318	0.712	2.445	0.733
10453.5	10.222	101.104	0.445	2.316	0.713	2.469	0.728
10453.75	10.218	100.176	0.445	2.316	0.714	2.459	0.725
10454	10.216	99.067	0.446	2.316	0.714	2.415	0.725
10454.25	10.215	97.98	0.447	2.317	0.714	2.343	0.726
10454.5	10.213	97.17	0.45	2.318	0.712	2.248	0.73
10454.75	10.213	96.796	0.452	2.319	0.711	2.128	0.734
10455	10.214	96.912	0.453	2.32	0.71	1.99	0.739
10455.25	10.219	97.576	0.454	2.32	0.709	1.854	0.742
10455.5	10.225	98.819	0.455	2.32	0.709	1.744	0.745
10455.75	10.232	100.482	0.455	2.32	0.71	1.677	0.746
10456	10.238	102.275	0.455	2.319	0.712	1.654	0.745
10456.25	10.243	103.715	0.461	2.317	0.714	1.656	0.743
10456.5	10.245	104.477	0.47	2.316	0.715	1.653	0.741
10456.75	10.247	104.459	0.477	2.313	0.716	1.621	0.74
10457	10.249	103.904	0.473	2.311	0.716	1.551	0.74
10457.25	10.251	103.19	0.468	2.308	0.715	1.456	0.742
10457.5	10.252	102.618	0.464	2.306	0.715	1.359	0.744
10457.75	10.254	102.234	0.464	2.304	0.715	1.28	0.746
10458	10.254	101.885	0.463	2.301	0.716	1.225	0.745
10458.25	10.254	101.456	0.462	2.299	0.717	1.194	0.742
10458.5	10.254	100.978	0.46	2.297	0.718	1.176	0.74
10458.75	10.254	100.572	0.458	2.294	0.72	1.16	0.739
10459	10.255	100.349	0.456	2.292	0.721	1.134	0.74
10459.25	10.259	100.269	0.454	2.29	0.722	1.094	0.744
10459.5	10.267	100.165	0.452	2.287	0.723	1.044	0.748
10459.75	10.28	99.993	0.45	2.285	0.723	0.986	0.751
10460	10.296	99.966	0.447	2.282	0.724	0.918	0.752
10460.25	10.312	100.276	0.445	2.28	0.724	0.843	0.752
10460.5	10.326	100.923	0.444	2.278	0.726	0.76	0.751
10460.75	10.335	101.723	0.444	2.277	0.728	0.673	0.749
10461	10.338	102.327	0.446	2.276	0.729	0.588	0.749
10461.25	10.339	102.472	0.448	2.275	0.731	0.511	0.748
10461.5	10.338	102.177	0.451	2.275	0.732	0.451	0.749
10461.75	10.337	101.682	0.452	2.276	0.732	0.408	0.749
10462	10.336	101.269	0.453	2.276	0.731	0.378	0.75
10462.25	10.334	101.145	0.452	2.277	0.731	0.356	0.75
10462.5	10.331	101.386	0.45	2.278	0.731	0.349	0.75
10462.75	10.325	101.735	0.447	2.28	0.731	0.364	0.75
10463	10.318	101.938	0.445	2.281	0.731	0.404	0.751
10463.25	10.311	101.921	0.444	2.282	0.732	0.465	0.751
10463.5	10.305	101.685	0.445	2.283	0.733	0.538	0.751
10463.75	10.302	101.371	0.447	2.283	0.735	0.609	0.75
10464	10.301	101.285	0.45	2.284	0.736	0.67	0.75
10464.25	10.301	101.666	0.453	2.284	0.738	0.713	0.749
10464.5	10.301	102.602	0.455	2.284	0.74	0.734	0.748
10464.75	10.3	103.934	0.457	2.284	0.741	0.733	0.747
10465	10.3	105.276	0.458	2.285	0.742	0.72	0.746
10465.25	10.302	106.211	0.46	2.285	0.742	0.704	0.745
10465.5	10.31	106.563	0.46	2.285	0.743	0.691	0.745
10465.75	10.323	106.449	0.461	2.286	0.743	0.675	0.746
10466	10.343	106.172	0.462	2.286	0.744	0.64	0.746
10466.25	10.367	106.071	0.463	2.286	0.745	0.573	0.747
10466.5	10.389	106.271	0.463	2.287	0.746	0.47	0.749
10466.75	10.407	106.553	0.463	2.287	0.747	0.342	0.752
10467	10.418	106.642	0.462	2.287	0.748	0.207	0.756
10467.25	10.423	106.222	0.462	2.287	0.749	0.095	0.761
10467.5	10.425	105.148	0.462	2.287	0.75	0.028	0.765
10467.75	10.426	103.658	0.461	2.287	0.751	0.015	0.766
10468	10.429	102.062	0.461	2.286	0.751	0.05	0.765
10468.25	10.431	100.666	0.461	2.286	0.752	0.118	0.763
10468.5	10.434	99.741	0.461	2.286	0.753	0.204	0.759
10468.75	10.436	99.265	0.461	2.285	0.754	0.3	0.754
10469	10.438	99.108	0.46	2.284	0.755	0.396	0.75
10469.25	10.441	99.07	0.459	2.283	0.756	0.486	0.747
10469.5	10.443	99.067	0.458	2.283	0.757	0.562	0.745
10469.75	10.444	98.983	0.457	2.282	0.757	0.622	0.745
10470	10.444	98.827	0.457	2.281	0.757	0.664	0.746
10470.25	10.443	98.724	0.458	2.28	0.757	0.689	0.748
10470.5	10.441	98.731	0.46	2.279	0.757	0.704	0.751
10470.75	10.436	98.915	0.461	2.278	0.756	0.718	0.755
10471	10.426	99.402	0.461	2.277	0.756	0.741	0.758
10471.25	10.408	100.143	0.46	2.276	0.755	0.773	0.761
10471.5	10.38	101.051	0.459	2.274	0.755	0.817	0.762
10471.75	10.347	101.962	0.458	2.272	0.754	0.879	0.76
10472	10.312	102.768	0.459	2.271	0.754	0.968	0.757
10472.25	10.281	103.392	0.461	2.269	0.753	1.087	0.752
10472.5	10.257	103.803	0.462	2.267	0.752	1.222	0.746
10472.75	10.24	104.04	0.462	2.265	0.751	1.345	0.739
10473	10.229	104.167	0.459	2.264	0.749	1.425	0.733
10473.25	10.22	104.155	0.456	2.263	0.747	1.439	0.728
10473.5	10.214	103.904	0.451	2.262	0.744	1.378	0.725
10473.75	10.211	103.294	0.448	2.262	0.741	1.259	0.723
10474	10.209	102.362	0.445	2.262	0.738	1.118	0.724
10474.25	10.208	101.414	0.444	2.263	0.736	0.994	0.725
10474.5	10.209	100.825	0.445	2.264	0.734	0.908	0.727
10474.75	10.211	100.76	0.445	2.266	0.733	0.86	0.729
10475	10.213	101.199	0.445	2.268	0.733	0.84	0.73
10475.25	10.216	101.904	0.445	2.27	0.733	0.837	0.73
10475.5	10.219	102.479	0.445	2.273	0.733	0.849	0.729
10475.75	10.219	102.573	0.445	2.276	0.734	0.876	0.727
10476	10.218	102.172	0.445	2.278	0.735	0.911	0.724
10476.25	10.216	101.592	0.446	2.281	0.737	0.941	0.721
10476.5	10.213	101.125	0.447	2.284	0.738	0.949	0.719
10476.75	10.212	100.898	0.448	2.286	0.74	0.925	0.72
10477	10.213	100.896	0.449	2.288	0.742	0.878	0.723
10477.25	10.217	101.078	0.449	2.29	0.745	0.835	0.729
10477.5	10.226	101.401	0.447	2.291	0.747	0.823	0.738
10477.75	10.24	101.71	0.444	2.291	0.749	0.855	0.746
10478	10.256	101.828	0.441	2.291	0.75	0.922	0.753
10478.25	10.272	101.676	0.438	2.291	0.751	1	0.757
10478.5	10.285	101.264	0.436	2.291	0.75	1.068	0.757
10478.75	10.294	100.727	0.436	2.291	0.749	1.113	0.755
10479	10.298	100.24	0.437	2.29	0.747	1.138	0.751
10479.25	10.299	99.948	0.439	2.29	0.745	1.152	0.745
10479.5	10.298	99.886	0.441	2.29	0.741	1.165	0.738
10479.75	10.294	99.817	0.442	2.291	0.737	1.182	0.729
10480	10.289	99.403	0.442	2.291	0.733	1.204	0.721
10480.25	10.284	98.572	0.444	2.292	0.73	1.231	0.714
10480.5	10.289	97.544	0.445	2.293	0.726	1.262	0.712
10480.75	10.312	96.583	0.447	2.294	0.724	1.299	0.713
10481	10.359	95.839	0.449	2.295	0.721	1.339	0.718
10481.25	10.426	95.329	0.449	2.296	0.719	1.373	0.723
10481.5	10.505	95.023	0.448	2.298	0.717	1.39	0.727
10481.75	10.584	94.894	0.445	2.299	0.715	1.381	0.728
10482	10.656	94.961	0.442	2.301	0.712	1.35	0.725
10482.25	10.717	95.183	0.438	2.303	0.709	1.309	0.717
10482.5	10.769	95.488	0.434	2.306	0.707	1.267	0.706
10482.75	10.818	95.809	0.432	2.308	0.705	1.224	0.694
10483	10.871	95.976	0.431	2.311	0.703	1.173	0.682
10483.25	10.931	95.826	0.432	2.313	0.701	1.1	0.673
10483.5	10.989	95.329	0.432	2.315	0.7	0.989	0.667
10483.75	11.027	94.533	0.43	2.317	0.698	0.826	0.664
10484	11.03	93.462	0.426	2.318	0.696	0.588	0.664
10484.25	10.993	92.151	0.418	2.318	0.695	0.244	0.666
10484.5	10.92	90.675	0.408	2.318	0.693	-0.247	0.669
10484.75	10.829	89.11	0.397	2.315	0.693	-0.944	0.674
10485	10.738	87.524	0.387	2.312	0.692	-1.936	0.681
10485.25	10.659	85.89	0.378	2.305	0.691	-3.34	0.688
10485.5	10.594	84.054	0.371	2.298	0.688	-5.286	0.696
10485.75	10.535	81.93	0.365	2.287	0.683	-7.889	0.706
10486	10.477	79.474	0.359	2.277	0.675	-11.223	0.717
10486.25	10.422	76.671	0.352	2.263	0.663	-15.303	0.731
10486.5	10.374	73.635	0.344	2.25	0.646	-20.094	0.745
10486.75	10.337	70.629	0.337	2.235	0.624	-25.53	0.755
10487	10.313	67.991	0.332	2.221	0.597	-31.519	0.75
10487.25	10.298	65.976	0.33	2.206	0.564	-37.908	0.721
10487.5	10.292	64.705	0.33	2.192	0.526	-44.435	0.666
10487.75	10.291	64.054	0.334	2.18	0.486	-50.742	0.595
10488	10.292	63.683	0.339	2.168	0.448	-56.439	0.523
10488.25	10.294	63.205	0.344	2.158	0.412	-61.204	0.464
10488.5	10.296	62.329	0.349	2.148	0.382	-64.882	0.421
10488.75	10.297	61.093	0.355	2.143	0.355	-67.507	0.396
10489	10.298	59.944	0.36	2.137	0.331	-69.257	0.385
10489.25	10.297	59.402	0.366	2.134	0.31	-70.363	0.386
10489.5	10.294	59.748	0.371	2.132	0.291	-70.984	0.394
10489.75	10.288	60.911	0.377	2.132	0.274	-71.13	0.402
10490	10.281	62.581	0.381	2.132	0.262	-70.686	0.402
10490.25	10.272	64.407	0.384	2.133	0.254	-69.533	0.39
10490.5	10.265	66.044	0.385	2.134	0.249	-67.674	0.37
10490.75	10.259	67.153	0.384	2.135	0.247	-65.356	0.349
10491	10.254	67.578	0.381	2.137	0.245	-63.074	0.335
10491.25	10.25	67.331	0.376	2.136	0.244	-61.406	0.334
10491.5	10.243	66.499	0.371	2.135	0.242	-60.804	0.347
10491.75	10.235	65.224	0.366	2.133	0.24	-61.427	0.375
10492	10.225	63.783	0.361	2.131	0.238	-63.109	0.418
10492.25	10.216	62.511	0.356	2.128	0.237	-65.444	0.468
10492.5	10.21	61.614	0.352	2.125	0.235	-67.944	0.512
10492.75	10.206	61.052	0.348	2.122	0.235	-70.185	0.54
10493	10.204	60.687	0.345	2.12	0.234	-71.886	0.548
10493.25	10.204	60.419	0.343	2.119	0.233	-72.944	0.542
10493.5	10.204	60.216	0.343	2.117	0.232	-73.411	0.527
10493.75	10.203	59.999	0.343	2.117	0.231	-73.449	0.507
10494	10.204	59.715	0.344	2.117	0.229	-73.281	0.481
10494.25	10.205	59.428	0.345	2.117	0.228	-73.115	0.453
10494.5	10.209	59.262	0.347	2.118	0.226	-73.068	0.426
10494.75	10.215	59.238	0.349	2.118	0.223	-73.145	0.405
10495	10.223	59.247	0.349	2.119	0.22	-73.275	0.393
10495.25	10.231	59.186	0.347	2.12	0.217	-73.361	0.39
10495.5	10.239	58.976	0.342	2.121	0.214	-73.314	0.391
10495.75	10.246	58.554	0.339	2.122	0.211	-73.086	0.389
10496	10.25	57.962	0.338	2.123	0.209	-72.706	0.38
10496.25	10.252	57.396	0.342	2.125	0.208	-72.296	0.364
10496.5	10.253	57.017	0.347	2.126	0.208	-72.033	0.344
10496.75	10.254	56.855	0.352	2.128	0.208	-72.065	0.33
10497	10.254	56.8	0.352	2.13	0.208	-72.431	0.323
10497.25	10.255	56.802	0.347	2.131	0.208	-73.001	0.326
10497.5	10.255	56.98	0.338	2.132	0.208	-73.5	0.336
10497.75	10.255	57.445	0.343	2.133	0.208	-73.64	0.347
10498	10.256	58.161	0.357	2.134	0.208	-73.256	0.355
10498.25	10.255	59.021	0.376	2.134	0.209	-72.329	0.357
10498.5	10.255	59.919	0.39	2.134	0.211	-70.944	0.353
10498.75	10.255	60.783	0.396	2.133	0.213	-69.245	0.349
10499	10.253	61.514	0.395	2.133	0.217	-67.416	0.349
10499.25	10.25	62.106	0.386	2.131	0.22	-65.695	0.357
10499.5	10.244	62.595	0.382	2.13	0.224	-64.361	0.374
10499.75	10.236	62.965	0.379	2.129	0.228	-63.692	0.401
10500	10.226	63.127	0.376	2.128	0.233	-63.881	0.435
10500.25	10.217	63.011	0.365	2.128	0.237	-64.893	0.47
10500.5	10.211	62.734	0.351	2.128	0.242	-66.375	0.498
10500.75	10.206	62.513	0.339	2.129	0.247	-67.73	0.511
10501	10.204	62.575	0.332	2.129	0.251	-68.38	0.501
10501.25	10.203	63.068	0.331	2.131	0.254	-68.024	0.473
10501.5	10.202	63.947	0.332	2.133	0.255	-66.754	0.435
10501.75	10.202	65.038	0.332	2.137	0.253	-64.959	0.398
10502	10.202	66.054	0.33	2.14	0.25	-63.125	0.372
10502.25	10.202	66.54	0.328	2.144	0.246	-61.691	0.358
10502.5	10.203	66.225	0.325	2.148	0.241	-60.936	0.358
10502.75	10.204	65.012	0.322	2.151	0.236	-60.918	0.368
10503	10.205	63.008	0.319	2.155	0.232	-61.528	0.382
10503.25	10.206	60.456	0.317	2.158	0.228	-62.565	0.39
10503.5	10.207	57.777	0.315	2.161	0.225	-63.786	0.385
10503.75	10.209	55.353	0.314	2.162	0.222	-64.92	0.367
10504	10.212	53.451	0.314	2.163	0.219	-65.717	0.344
10504.25	10.217	52.217	0.316	2.162	0.216	-66.025	0.324
10504.5	10.225	51.637	0.32	2.161	0.212	-65.856	0.309
10504.75	10.237	51.518	0.325	2.158	0.208	-65.395	0.3
10505	10.251	51.766	0.331	2.155	0.204	-64.871	0.294
10505.25	10.268	52.343	0.338	2.152	0.201	-64.473	0.289
10505.5	10.285	53.28	0.346	2.148	0.198	-64.321	0.285
10505.75	10.301	54.59	0.355	2.144	0.197	-64.45	0.281
10506	10.314	56.175	0.362	2.14	0.196	-64.795	0.277
10506.25	10.325	57.756	0.369	2.137	0.195	-65.22	0.274
10506.5	10.333	58.99	0.375	2.135	0.195	-65.545	0.273
10506.75	10.338	59.647	0.379	2.133	0.195	-65.619	0.275
10507	10.341	59.768	0.383	2.132	0.196	-65.39	0.282
10507.25	10.343	59.567	0.386	2.132	0.196	-64.938	0.294
10507.5	10.342	59.312	0.389	2.132	0.198	-64.448	0.311
10507.75	10.34	59.169	0.39	2.133	0.2	-64.115	0.33
10508	10.335	59.218	0.39	2.134	0.202	-64.033	0.348
10508.25	10.329	59.416	0.388	2.135	0.206	-64.156	0.365
10508.5	10.321	59.699	0.386	2.137	0.21	-64.346	0.381
10508.75	10.314	59.971	0.383	2.138	0.215	-64.459	0.398
10509	10.309	60.191	0.381	2.14	0.22	-64.439	0.418
10509.25	10.306	60.289	0.378	2.142	0.224	-64.357	0.443
10509.5	10.302	60.216	0.376	2.144	0.229	-64.348	0.471
10509.75	10.297	59.992	0.373	2.146	0.233	-64.51	0.498
10510	10.29	59.605	0.369	2.149	0.237	-64.847	0.516
10510.25	10.28	59.104	0.364	2.152	0.241	-65.302	0.518
10510.5	10.269	58.578	0.36	2.155	0.247	-65.819	0.503
10510.75	10.259	58.082	0.356	2.159	0.253	-66.371	0.48
10511	10.253	57.677	0.353	2.162	0.26	-66.899	0.459
10511.25	10.252	57.43	0.35	2.167	0.268	-67.245	0.447
10511.5	10.256	57.413	0.349	2.171	0.276	-67.197	0.447
10511.75	10.264	57.663	0.349	2.176	0.284	-66.574	0.458
10512	10.274	58.175	0.349	2.18	0.293	-65.285	0.477
10512.25	10.283	58.863	0.349	2.185	0.3	-63.332	0.496
10512.5	10.291	59.567	0.349	2.19	0.308	-60.793	0.509
10512.75	10.296	60.358	0.35	2.196	0.316	-57.788	0.514
10513	10.298	61.464	0.352	2.201	0.325	-54.407	0.511
10513.25	10.298	63.06	0.356	2.205	0.336	-50.71	0.505
10513.5	10.298	65.271	0.362	2.21	0.347	-46.806	0.498
10513.75	10.298	68.161	0.369	2.212	0.358	-42.939	0.491
10514	10.298	71.581	0.377	2.215	0.368	-39.495	0.485
10514.25	10.301	75.066	0.384	2.216	0.374	-36.89	0.478
10514.5	10.31	78.06	0.388	2.216	0.378	-35.418	0.467
10514.75	10.329	80.164	0.389	2.215	0.379	-35.202	0.45
10515	10.356	81.118	0.388	2.214	0.378	-36.183	0.429
10515.25	10.383	80.786	0.386	2.213	0.376	-38.123	0.408
10515.5	10.4	79.197	0.383	2.212	0.373	-40.629	0.389
10515.75	10.396	76.705	0.379	2.212	0.37	-43.165	0.375
10516	10.373	73.975	0.376	2.212	0.367	-45.065	0.367
10516.25	10.338	71.806	0.374	2.214	0.363	-45.725	0.366
10516.5	10.307	70.747	0.374	2.217	0.359	-44.822	0.373
10516.75	10.294	70.927	0.374	2.221	0.354	-42.443	0.387
10517	10.301	72.13	0.375	2.225	0.35	-39.062	0.409
10517.25	10.324	73.887	0.375	2.23	0.347	-35.362	0.436
10517.5	10.352	75.699	0.375	2.235	0.345	-31.939	0.468
10517.75	10.375	77.281	0.375	2.24	0.346	-29.058	0.5
10518	10.389	78.604	0.374	2.246	0.351	-26.657	0.53
10518.25	10.392	79.66	0.375	2.25	0.36	-24.52	0.557
10518.5	10.387	80.397	0.375	2.254	0.372	-22.492	0.578
10518.75	10.378	80.82	0.376	2.257	0.385	-20.6	0.595
10519	10.369	81.101	0.375	2.26	0.399	-18.971	0.607
10519.25	10.36	81.481	0.374	2.261	0.412	-17.722	0.615
10519.5	10.355	82.136	0.372	2.262	0.422	-16.947	0.619
10519.75	10.352	83.08	0.37	2.261	0.43	-16.714	0.62
10520	10.35	84.182	0.369	2.26	0.436	-17.066	0.621
10520.25	10.348	85.217	0.369	2.257	0.44	-18.041	0.623
10520.5	10.345	85.951	0.371	2.254	0.442	-19.668	0.629
10520.75	10.342	86.181	0.373	2.251	0.442	-21.902	0.637
10521	10.341	85.808	0.374	2.247	0.442	-24.499	0.649
10521.25	10.343	84.921	0.374	2.244	0.441	-26.967	0.659
10521.5	10.349	83.726	0.374	2.24	0.441	-28.686	0.666
10521.75	10.357	82.449	0.372	2.239	0.442	-29.152	0.666
10522	10.368	81.375	0.37	2.237	0.445	-28.211	0.658
10522.25	10.378	80.79	0.368	2.237	0.448	-26.126	0.645
10522.5	10.386	80.861	0.366	2.237	0.453	-23.405	0.631
10522.75	10.389	81.597	0.366	2.239	0.458	-20.569	0.619
10523	10.388	82.858	0.367	2.241	0.462	-17.973	0.611
10523.25	10.382	84.361	0.37	2.243	0.466	-15.763	0.606
10523.5	10.374	85.769	0.373	2.246	0.469	-13.937	0.604
10523.75	10.364	86.731	0.376	2.249	0.471	-12.445	0.605
10524	10.356	87.024	0.378	2.252	0.472	-11.283	0.606
10524.25	10.35	86.67	0.377	2.254	0.473	-10.486	0.607
10524.5	10.347	85.97	0.376	2.256	0.472	-10.066	0.609
10524.75	10.346	85.275	0.374	2.257	0.469	-10.025	0.611
10525	10.346	84.759	0.371	2.259	0.465	-10.376	0.612
10525.25	10.346	84.423	0.369	2.257	0.46	-11.135	0.612
10525.5	10.347	84.158	0.369	2.256	0.454	-12.279	0.611
10525.75	10.346	83.953	0.37	2.252	0.447	-13.742	0.608
10526	10.341	83.912	0.372	2.248	0.439	-15.484	0.602
10526.25	10.329	84.041	0.374	2.24	0.431	-17.609	0.592
10526.5	10.31	84.184	0.375	2.233	0.422	-20.378	0.58
10526.75	10.286	84.063	0.376	2.223	0.412	-24.057	0.568
10527	10.26	83.428	0.376	2.213	0.4	-28.737	0.559
10527.25	10.238	82.156	0.375	2.203	0.386	-34.247	0.558
10527.5	10.222	80.302	0.374	2.193	0.37	-40.193	0.566
10527.75	10.215	78.172	0.372	2.184	0.35	-46.121	0.584
10528	10.214	76.201	0.37	2.176	0.329	-51.686	0.609
10528.25	10.218	74.857	0.367	2.171	0.308	-56.718	0.631
10528.5	10.225	74.388	0.365	2.167	0.29	-61.174	0.638
10528.75	10.236	74.672	0.364	2.167	0.276	-65.039	0.622
10529	10.248	75.292	0.364	2.168	0.266	-68.241	0.585
10529.25	10.261	75.773	0.365	2.174	0.26	-70.583	0.54
10529.5	10.273	75.861	0.367	2.179	0.258	-71.769	0.5
10529.75	10.283	75.614	0.37	2.188	0.257	-71.543	0.47
10530	10.29	75.368	0.371	2.196	0.257	-69.808	0.454
10530.25	10.294	75.481	0.37	2.205	0.258	-66.665	0.449
10530.5	10.295	76.036	0.368	2.214	0.26	-62.345	0.455
10530.75	10.293	76.88	0.364	2.22	0.261	-57.135	0.467
10531	10.289	77.706	0.361	2.227	0.264	-51.368	0.483
10531.25	10.286	78.34	0.358	2.228	0.268	-45.489	0.5
10531.5	10.283	78.859	0.358	2.23	0.273	-40.114	0.514
10531.75	10.285	79.389	0.359	2.227	0.28	-35.979	0.526
10532	10.29	79.884	0.362	2.223	0.287	-33.758	0.538
10532.25	10.298	80.148	0.364	2.217	0.292	-33.814	0.55
10532.5	10.306	80.024	0.365	2.211	0.295	-36	0.564
10532.75	10.313	79.553	0.364	2.205	0.295	-39.69	0.576
10533	10.317	79.023	0.362	2.198	0.293	-44.061	0.583
10533.25	10.319	78.82	0.359	2.194	0.29	-48.399	0.579
10533.5	10.321	79.159	0.356	2.189	0.287	-52.231	0.562
10533.75	10.323	79.923	0.354	2.188	0.286	-55.263	0.536
10534	10.327	80.677	0.351	2.187	0.287	-57.244	0.51
10534.25	10.332	81.005	0.35	2.19	0.289	-57.935	0.49
10534.5	10.337	80.794	0.35	2.193	0.293	-57.251	0.479
10534.75	10.342	80.222	0.352	2.198	0.298	-55.393	0.481
10535	10.345	79.563	0.355	2.203	0.303	-52.824	0.493
10535.25	10.347	79.057	0.358	2.21	0.309	-50.062	0.513
10535.5	10.348	78.808	0.36	2.217	0.315	-47.455	0.537
10535.75	10.345	78.724	0.361	2.224	0.323	-45.107	0.56
10536	10.341	78.772	0.362	2.231	0.333	-42.914	0.577
10536.25	10.335	79.069	0.363	2.237	0.347	-40.686	0.589
10536.5	10.33	79.803	0.362	2.244	0.363	-38.26	0.596
10536.75	10.327	81.057	0.361	2.25	0.382	-35.543	0.603
10537	10.328	82.58	0.361	2.256	0.402	-32.491	0.613
10537.25	10.333	83.902	0.36	2.261	0.421	-29.098	0.625
10537.5	10.339	84.69	0.359	2.266	0.44	-25.444	0.638
10537.75	10.345	84.859	0.358	2.27	0.456	-21.783	0.648
10538	10.35	84.61	0.356	2.274	0.469	-18.544	0.652
10538.25	10.356	84.242	0.354	2.276	0.48	-16.168	0.65
10538.5	10.362	83.984	0.353	2.279	0.489	-14.892	0.642
10538.75	10.37	83.919	0.352	2.28	0.495	-14.657	0.632
10539	10.377	84.112	0.352	2.282	0.499	-15.184	0.621
10539.25	10.38	84.602	0.353	2.284	0.501	-16.125	0.613
10539.5	10.379	85.346	0.354	2.285	0.503	-17.205	0.61
10539.75	10.373	86.208	0.355	2.287	0.504	-18.237	0.613
10540	10.364	86.978	0.355	2.289	0.505	-19.067	0.622
10540.25	10.356	87.514	0.355	2.292	0.506	-19.524	0.634
10540.5	10.354	87.838	0.355	2.294	0.508	-19.43	0.644
10540.75	10.36	88.083	0.356	2.296	0.51	-18.66	0.648
10541	10.374	88.364	0.357	2.299	0.514	-17.243	0.644
10541.25	10.396	88.735	0.358	2.301	0.519	-15.388	0.637
10541.5	10.42	89.113	0.359	2.303	0.526	-13.4	0.63
10541.75	10.442	89.399	0.359	2.304	0.533	-11.542	0.629
10542	10.46	89.564	0.359	2.305	0.54	-9.937	0.633
10542.25	10.471	89.673	0.358	2.306	0.547	-8.574	0.642
10542.5	10.477	89.799	0.357	2.307	0.552	-7.396	0.652
10542.75	10.479	89.942	0.356	2.307	0.555	-6.384	0.659
10543	10.48	89.996	0.355	2.307	0.557	-5.609	0.663
10543.25	10.479	89.817	0.355	2.308	0.559	-5.202	0.665
10543.5	10.479	89.396	0.356	2.308	0.56	-5.252	0.667
10543.75	10.479	88.842	0.358	2.309	0.56	-5.733	0.671
10544	10.482	88.316	0.361	2.31	0.561	-6.502	0.676
10544.25	10.487	87.829	0.364	2.311	0.561	-7.355	0.683
10544.5	10.494	87.278	0.365	2.312	0.561	-8.099	0.688
10544.75	10.502	86.577	0.364	2.313	0.561	-8.619	0.691
10545	10.511	85.814	0.363	2.314	0.561	-8.917	0.69
10545.25	10.519	85.098	0.36	2.315	0.561	-9.09	0.686
10545.5	10.527	84.581	0.357	2.317	0.561	-9.275	0.682
10545.75	10.536	84.428	0.355	2.318	0.56	-9.574	0.678
10546	10.544	84.834	0.354	2.319	0.558	-10.025	0.677
10546.25	10.545	85.867	0.354	2.32	0.555	-10.615	0.677
10546.5	10.534	87.393	0.355	2.32	0.551	-11.309	0.679
10546.75	10.509	89.102	0.356	2.319	0.547	-12.068	0.68
10547	10.473	90.675	0.357	2.317	0.542	-12.863	0.679
10547.25	10.431	91.768	0.359	2.314	0.536	-13.661	0.675
10547.5	10.389	92.108	0.361	2.31	0.529	-14.436	0.668
10547.75	10.351	91.74	0.362	2.304	0.521	-15.219	0.659
10548	10.32	90.958	0.364	2.298	0.513	-16.196	0.65
10548.25	10.295	90.093	0.365	2.29	0.505	-17.676	0.643
10548.5	10.275	89.284	0.365	2.283	0.496	-19.941	0.64
10548.75	10.26	88.383	0.365	2.277	0.487	-23.068	0.644
10549	10.252	87.077	0.365	2.271	0.478	-26.844	0.654
10549.25	10.248	85.221	0.365	2.269	0.468	-30.79	0.671
10549.5	10.246	83.046	0.364	2.266	0.459	-34.29	0.693
10549.75	10.244	81.036	0.363	2.268	0.451	-36.759	0.717
10550	10.243	79.79	0.361	2.27	0.446	-37.851	0.738
10550.25	10.244	79.705	0.36	2.277	0.444	-37.547	0.75
10550.5	10.249	80.638	0.362	2.284	0.446	-36.083	0.75
10550.75	10.258	82.018	0.366	2.294	0.45	-33.791	0.739
10551	10.271	83.227	0.372	2.303	0.458	-30.973	0.72
10551.25	10.283	83.791	0.378	2.313	0.467	-27.864	0.701
10551.5	10.293	83.599	0.383	2.323	0.478	-24.624	0.683
10551.75	10.299	82.798	0.386	2.331	0.489	-21.38	0.671
10552	10.303	81.66	0.385	2.339	0.502	-18.286	0.663
10552.25	10.304	80.446	0.382	2.344	0.514	-15.565	0.661
10552.5	10.302	79.452	0.379	2.348	0.527	-13.458	0.663
10552.75	10.297	78.875	0.376	2.349	0.538	-12.129	0.668
10553	10.294	78.799	0.375	2.35	0.55	-11.582	0.678
10553.25	10.305	79.198	0.374	2.348	0.56	-11.669	0.689
10553.5	10.344	79.992	0.373	2.345	0.568	-12.154	0.701
10553.75	10.419	80.99	0.372	2.341	0.576	-12.852	0.71
10554	10.528	81.997	0.371	2.337	0.582	-13.732	0.716
10554.25	10.656	82.858	0.37	2.333	0.586	-14.905	0.718
10554.5	10.782	83.382	0.37	2.328	0.587	-16.517	0.719
10554.75	10.885	83.416	0.369	2.324	0.587	-18.622	0.721
10555	10.957	82.945	0.368	2.32	0.585	-21.162	0.727
10555.25	10.998	82.173	0.366	2.315	0.582	-23.931	0.736
10555.5	11.016	81.479	0.362	2.311	0.579	-26.564	0.742
10555.75	11.023	81.25	0.359	2.306	0.576	-28.602	0.742
10556	11.026	81.617	0.357	2.301	0.575	-29.648	0.734
10556.25	11.027	82.294	0.357	2.296	0.573	-29.533	0.719
10556.5	11.027	82.759	0.36	2.29	0.573	-28.384	0.701
10556.75	11.028	82.597	0.365	2.284	0.572	-26.582	0.685
10557	11.028	81.792	0.372	2.278	0.572	-24.633	0.674
10557.25	11.029	80.718	0.378	2.272	0.571	-22.981	0.667
10557.5	11.029	79.817	0.381	2.266	0.571	-21.836	0.666
10557.75	11.03	79.303	0.38	2.262	0.57	-21.077	0.67
10558	11.03	79.179	0.376	2.257	0.569	-20.386	0.678
10558.25	11.03	79.236	0.37	2.255	0.567	-19.49	0.688
10558.5	11.031	79.236	0.362	2.252	0.566	-18.306	0.696
10558.75	11.039	79.079	0.355	2.252	0.563	-16.95	0.699
10559	11.06	78.851	0.35	2.251	0.56	-15.649	0.696
10559.25	11.095	78.668	0.346	2.252	0.557	-14.635	0.688
10559.5	11.139	78.622	0.345	2.253	0.554	-14.056	0.676
10559.75	11.175	78.675	0.345	2.254	0.551	-13.929	0.665
10560	11.189	78.794	0.346	2.255	0.548	-14.16	0.656
10560.25	11.168	78.87	0.347	2.256	0.546	-14.585	0.65
10560.5	11.116	78.753	0.349	2.256	0.544	-15.035	0.648
10560.75	11.047	78.261	0.351	2.256	0.543	-15.386	0.648
10561	10.981	77.375	0.352	2.256	0.542	-15.581	0.651
10561.25	10.925	76.269	0.353	2.257	0.542	-15.632	0.655
10561.5	10.873	75.21	0.353	2.257	0.543	-15.594	0.658
10561.75	10.816	74.459	0.353	2.26	0.545	-15.546	0.661
10562	10.743	74.381	0.351	2.263	0.548	-15.564	0.662
10562.25	10.66	75.175	0.351	2.268	0.551	-15.708	0.663
10562.5	10.58	76.73	0.352	2.273	0.555	-16.004	0.665
10562.75	10.518	78.623	0.356	2.281	0.559	-16.442	0.669
10563	10.481	80.396	0.361	2.288	0.563	-16.974	0.676
10563.25	10.467	81.755	0.367	2.297	0.567	-17.501	0.686
10563.5	10.467	82.586	0.371	2.307	0.571	-17.874	0.697
10563.75	10.471	82.976	0.373	2.315	0.575	-17.915	0.709
10564	10.473	83.189	0.374	2.324	0.579	-17.481	0.72
10564.25	10.474	83.545	0.373	2.33	0.584	-16.52	0.729
10564.5	10.475	84.289	0.374	2.335	0.588	-15.094	0.734
10564.75	10.477	85.437	0.375	2.338	0.592	-13.365	0.733
10565	10.481	86.843	0.378	2.34	0.596	-11.539	0.728
10565.25	10.487	88.335	0.381	2.338	0.599	-9.793	0.718
10565.5	10.494	89.66	0.385	2.337	0.601	-8.271	0.706
10565.75	10.502	90.614	0.388	2.333	0.602	-7.098	0.694
10566	10.509	90.997	0.391	2.33	0.6	-6.383	0.686
10566.25	10.514	90.812	0.395	2.326	0.597	-6.171	0.681
10566.5	10.515	90.374	0.398	2.322	0.591	-6.376	0.681
10566.75	10.514	90.003	0.4	2.318	0.583	-6.776	0.686
10567	10.51	89.772	0.4	2.314	0.573	-7.083	0.694
10567.25	10.505	89.645	0.398	2.311	0.563	-7.07	0.702
10567.5	10.503	89.456	0.396	2.307	0.553	-6.687	0.707
10567.75	10.509	89.017	0.394	2.304	0.544	-6.137	0.706
10568	10.534	88.265	0.394	2.3	0.535	-5.857	0.696
10568.25	10.584	87.336	0.395	2.295	0.526	-6.313	0.679
10568.5	10.66	86.444	0.394	2.291	0.517	-7.736	0.66
10568.75	10.742	85.722	0.393	2.286	0.508	-10.039	0.643
10569	10.808	85.207	0.39	2.282	0.498	-12.924	0.632
10569.25	10.835	84.715	0.387	2.279	0.489	-16.033	0.628
10569.5	10.817	84.118	0.383	2.275	0.48	-19.075	0.632
10569.75	10.763	83.495	0.38	2.274	0.473	-21.853	0.64
10570	10.689	82.984	0.378	2.272	0.467	-24.217	0.651
10570.25	10.617	82.673	0.376	2.273	0.463	-26.02	0.664
10570.5	10.56	82.583	0.374	2.273	0.459	-27.094	0.677
10570.75	10.524	82.58	0.373	2.275	0.457	-27.309	0.689
10571	10.505	82.442	0.373	2.277	0.456	-26.67	0.697
10571.25	10.502	82.022	0.375	2.279	0.455	-25.357	0.698
10571.5	10.51	81.381	0.377	2.282	0.455	-23.687	0.691
10571.75	10.524	80.692	0.381	2.284	0.456	-21.982	0.677
10572	10.539	80.34	0.385	2.285	0.459	-20.441	0.659
10572.25	10.552	80.61	0.389	2.287	0.462	-19.112	0.642
10572.5	10.561	81.413	0.392	2.288	0.466	-17.988	0.629
10572.75	10.571	82.346	0.394	2.29	0.469	-17.121	0.621
10573	10.582	82.968	0.395	2.291	0.472	-16.66	0.617
10573.25	10.593	83.084	0.395	2.292	0.473	-16.84	0.616
10573.5	10.601	82.775	0.394	2.293	0.474	-17.934	0.617
10573.75	10.602	82.399	0.393	2.294	0.474	-20.188	0.618
10574	10.597	82.313	0.392	2.295	0.473	-23.631	0.62
10574.25	10.585	82.592	0.39	2.295	0.471	-27.868	0.624
10574.5	10.571	83.16	0.388	2.295	0.47	-32.069	0.633
10574.75	10.557	83.774	0.388	2.295	0.468	-35.306	0.645
10575	10.55	84.295	0.39	2.294	0.466	-36.948	0.659
10575.25	10.562	84.857	0.396	2.293	0.467	-36.927	0.669
10575.5	10.612	85.584	0.403	2.292	0.468	-35.744	0.67
10575.75	10.718	86.303	0.41	2.291	0.471	-34.235	0.663
10576	10.887	86.587	0.415	2.29	0.475	-33.159	0.649
10576.25	11.104	86.02	0.417	2.289	0.479	-32.825	0.637
10576.5	11.337	84.479	0.417	2.288	0.483	-32.958	0.632
10576.75	11.548	82.33	0.414	2.287	0.486	-32.952	0.635
10577	11.708	80.351	0.41	2.287	0.489	-32.31	0.646
10577.25	11.806	79.271	0.407	2.286	0.491	-30.905	0.66
10577.5	11.853	79.405	0.404	2.285	0.494	-28.957	0.67
10577.75	11.869	80.584	0.402	2.284	0.497	-26.834	0.675
10578	11.872	82.312	0.4	2.282	0.5	-24.844	0.674
10578.25	11.873	84.034	0.399	2.279	0.504	-23.101	0.669
10578.5	11.873	85.316	0.399	2.276	0.507	-21.522	0.663
10578.75	11.873	85.961	0.399	2.272	0.51	-19.911	0.657
10579	11.872	86.043	0.4	2.268	0.513	-18.096	0.652
10579.25	11.872	85.785	0.4	2.264	0.514	-16.046	0.646
10579.5	11.871	85.347	0.4	2.26	0.516	-13.873	0.64
10579.75	11.871	84.935	0.399	2.257	0.517	-11.753	0.635
10580	11.872	84.775	0.399	2.253	0.518	-9.865	0.631
10580.25	11.876	85.094	0.398	2.251	0.519	-8.356	0.629
10580.5	11.886	85.932	0.396	2.249	0.519	-7.304	0.63
10580.75	11.905	87.146	0.394	2.248	0.518	-6.701	0.633
10581	11.93	88.302	0.392	2.248	0.517	-6.483	0.636
10581.25	11.951	89.067	0.389	2.248	0.516	-6.573	0.64
10581.5	11.944	89.349	0.387	2.248	0.515	-6.926	0.641
10581.75	11.882	89.174	0.386	2.248	0.514	-7.545	0.64
10582	11.753	88.585	0.385	2.248	0.514	-8.469	0.636
10582.25	11.568	87.759	0.386	2.248	0.515	-9.769	0.635
10582.5	11.358	86.746	0.387	2.249	0.516	-11.515	0.638
10582.75	11.163	85.601	0.388	2.25	0.517	-13.718	0.648
10583	11.019	84.331	0.389	2.252	0.518	-16.286	0.664
10583.25	10.951	82.999	0.388	2.254	0.518	-18.988	0.682
10583.5	10.968	81.791	0.385	2.257	0.517	-21.459	0.694
10583.75	11.055	80.964	0.381	2.261	0.516	-23.27	0.696
10584	11.182	80.648	0.378	2.264	0.516	-24.074	0.687
10584.25	11.307	80.741	0.377	2.268	0.516	-23.732	0.672
10584.5	11.389	81.207	0.379	2.272	0.517	-22.383	0.656
10584.75	11.403	82.064	0.383	2.274	0.519	-20.397	0.643
10585	11.349	83.139	0.39	2.276	0.521	-18.216	0.635
10585.25	11.252	84.196	0.397	2.277	0.522	-16.176	0.628
10585.5	11.153	85.041	0.405	2.277	0.523	-14.43	0.62
10585.75	11.081	85.569	0.412	2.276	0.523	-12.973	0.61
10586	11.045	85.701	0.416	2.275	0.521	-11.778	0.599
10586.25	11.034	85.34	0.416	2.273	0.52	-10.926	0.59
10586.5	11.032	84.585	0.412	2.271	0.518	-10.619	0.588
10586.75	11.027	83.791	0.404	2.27	0.517	-11.068	0.593
10587	11.015	83.246	0.395	2.269	0.515	-12.312	0.606
10587.25	10.997	82.95	0.386	2.269	0.514	-14.081	0.623
10587.5	10.977	82.77	0.38	2.269	0.513	-15.858	0.639
10587.75	10.959	82.661	0.377	2.27	0.512	-17.116	0.649
10588	10.946	82.564	0.378	2.271	0.512	-17.569	0.649
10588.25	10.941	82.521	0.381	2.272	0.515	-17.274	0.644
10588.5	10.941	82.611	0.385	2.274	0.518	-16.542	0.636
10588.75	10.946	82.977	0.39	2.275	0.522	-15.708	0.63
10589	10.953	83.756	0.394	2.277	0.527	-14.941	0.629
10589.25	10.962	84.976	0.397	2.278	0.53	-14.201	0.63
10589.5	10.972	86.43	0.399	2.28	0.532	-13.335	0.632
10589.75	10.982	87.822	0.399	2.281	0.533	-12.24	0.632
10590	10.993	88.874	0.399	2.283	0.531	-10.978	0.629
10590.25	11.003	89.26	0.399	2.284	0.529	-9.753	0.624
10590.5	11.014	88.692	0.398	2.286	0.526	-8.812	0.621
10590.75	11.031	87.213	0.398	2.287	0.523	-8.333	0.62
10591	11.065	85.252	0.397	2.287	0.519	-8.379	0.625
10591.25	11.135	83.449	0.394	2.286	0.514	-8.892	0.633
10591.5	11.242	82.429	0.39	2.286	0.508	-9.713	0.642
10591.75	11.367	82.454	0.385	2.282	0.502	-10.61	0.65
10592	11.479	83.354	0.381	2.278	0.495	-11.357	0.653
10592.25	11.539	84.703	0.379	2.271	0.488	-11.852	0.647
10592.5	11.517	85.978	0.379	2.265	0.483	-12.229	0.633
10592.75	11.415	86.639	0.382	2.255	0.479	-12.898	0.614
10593	11.258	86.399	0.385	2.246	0.474	-14.442	0.595
10593.25	11.08	85.298	0.386	2.237	0.468	-17.368	0.581
10593.5	10.909	83.589	0.387	2.227	0.458	-21.906	0.575
10593.75	10.754	81.553	0.385	2.219	0.441	-27.915	0.58
10594	10.616	79.333	0.383	2.21	0.42	-34.907	0.594
10594.25	10.495	77.04	0.381	2.205	0.395	-42.207	0.614
10594.5	10.398	74.8	0.378	2.2	0.372	-49.142	0.634
10594.75	10.325	72.771	0.375	2.2	0.352	-55.18	0.65
10595	10.28	71.174	0.371	2.199	0.336	-59.965	0.656
10595.25	10.261	70.157	0.367	2.201	0.325	-63.226	0.652
10595.5	10.257	69.652	0.364	2.204	0.318	-64.666	0.637
10595.75	10.256	69.503	0.364	2.209	0.313	-63.986	0.614
10596	10.256	69.63	0.366	2.213	0.311	-61.068	0.586
10596.25	10.255	70.191	0.371	2.218	0.311	-56.091	0.556
10596.5	10.255	71.45	0.376	2.223	0.313	-49.542	0.529
10596.75	10.254	73.604	0.381	2.227	0.316	-42.163	0.507
10597	10.254	76.519	0.386	2.231	0.322	-34.794	0.493
10597.25	10.254	79.684	0.399	2.236	0.329	-28.185	0.486
10597.5	10.254	82.486	0.406	2.24	0.338	-22.856	0.487
10597.75	10.254	84.34	0.406	2.246	0.347	-19.079	0.494
10598	10.253	85.017	0.399	2.253	0.355	-16.987	0.505
10598.25	10.253	84.798	0.393	2.264	0.364	-16.714	0.518
10598.5	10.253	84.077	0.398	2.275	0.371	-18.342	0.529
10598.75	10.254	83.055	0.406	2.292	0.376	-21.668	0.541
10599	10.255	81.719	0.41	2.308	0.379	-26.098	0.554
10599.25	10.256	80.002	0.404	2.329	0.378	-30.783	0.571
10599.5	10.257	77.874	0.396	2.349	0.376	-34.713	0.595
10599.75	10.258	75.304	0.388	2.367	0.373	-36.962	0.628
10600	10.258	72.363	0.38	2.386	0.373	-36.965	0.671
